<?xml version="1.0"?>
<Overlays Name="N2Onu2.ovr" Comment="Averaged over 0.0005 cm-1 to reduce file size" Version="Pgopher 9.0.116 22 Jul 2015 22:11 64 bit Unicode (Delphi 29/29)">
  <ExperimentalPlot Name="N2O_0.001 torr_F6_72M_4X_06-17-15_Emission back parallel input_GeCu [External Pos.6]_0.000960_1.15 mm_80 kHz_KBr_BEB_AVG139deglitch.dpt" Comment="\\chm-fs.chm.bris.ac.uk\q\MyShared\delphi\projects\pgopher\Presentation\Workshop\N2O_0.001 torr_F6_72M_4X_06-17-15_Emission back parallel input_GeCu [External Pos.6]_0.000960_1.15 mm_80 kHz_KBr_BEB_AVG139deglitch.dpt" Colour="Maroon">    <![CDATA[
3700.0010 0.0182
3700.0020 0.0150
3700.0030 0.0147
3700.0040 0.0157
3700.0050 0.0168
3700.0060 0.0143
3700.0070 0.0150
3700.0080 0.0152
3700.0090 0.0176
3700.0100 0.0155
3700.0110 0.0144
3700.0120 0.0133
3700.0130 0.0125
3700.0140 0.0123
3700.0150 0.0147
3700.0160 0.0129
3700.0170 0.0115
3700.0180 0.0121
3700.0190 0.0104
3700.0200 0.0121
3700.0210 0.0103
3700.0220 0.0116
3700.0230 0.0108
3700.0240 0.0108
3700.0250 0.0113
3700.0260 0.0083
3700.0270 0.0106
3700.0280 0.0113
3700.0290 0.0097
3700.0300 0.0100
3700.0310 0.0106
3700.0320 0.0099
3700.0330 0.0091
3700.0340 0.0100
3700.0350 0.0112
3700.0360 0.0098
3700.0370 0.0103
3700.0380 0.0091
3700.0390 0.0110
3700.0400 0.0106
3700.0410 0.0102
3700.0420 0.0091
3700.0430 0.0114
3700.0440 0.0112
3700.0450 0.0100
3700.0460 0.0116
3700.0470 0.0104
3700.0480 0.0110
3700.0490 0.0114
3700.0500 0.0110
3700.0510 0.0108
3700.0520 0.0103
3700.0530 0.0091
3700.0540 0.0103
3700.0550 0.0094
3700.0560 0.0104
3700.0570 0.0106
3700.0580 0.0111
3700.0590 0.0108
3700.0600 0.0108
3700.0610 0.0112
3700.0620 0.0116
3700.0630 0.0112
3700.0640 0.0116
3700.0650 0.0117
3700.0660 0.0124
3700.0670 0.0107
3700.0680 0.0108
3700.0690 0.0105
3700.0700 0.0103
3700.0710 0.0106
3700.0720 0.0113
3700.0730 0.0114
3700.0740 0.0116
3700.0750 0.0118
3700.0760 0.0112
3700.0770 0.0096
3700.0780 0.0105
3700.0790 0.0105
3700.0800 0.0104
3700.0810 0.0117
3700.0820 0.0121
3700.0830 0.0123
3700.0840 0.0119
3700.0850 0.0119
3700.0860 0.0112
3700.0870 0.0126
3700.0880 0.0120
3700.0890 0.0132
3700.0900 0.0123
3700.0910 0.0119
3700.0920 0.0126
3700.0930 0.0138
3700.0940 0.0126
3700.0950 0.0139
3700.0960 0.0124
3700.0970 0.0126
3700.0980 0.0118
3700.0990 0.0138
3700.1000 0.0127
3700.1010 0.0140
3700.1020 0.0130
3700.1030 0.0127
3700.1040 0.0135
3700.1050 0.0130
3700.1060 0.0123
3700.1070 0.0137
3700.1080 0.0128
3700.1090 0.0151
3700.1100 0.0152
3700.1110 0.0137
3700.1120 0.0142
3700.1130 0.0170
3700.1140 0.0145
3700.1150 0.0182
3700.1160 0.0231
3700.1170 0.0217
3700.1180 0.0204
3700.1190 0.0170
3700.1200 0.0160
3700.1210 0.0189
3700.1220 0.0159
3700.1230 0.0175
3700.1240 0.0162
3700.1250 0.0126
3700.1260 0.0161
3700.1270 0.0135
3700.1280 0.0133
3700.1290 0.0120
3700.1300 0.0124
3700.1310 0.0138
3700.1320 0.0138
3700.1330 0.0145
3700.1340 0.0137
3700.1350 0.0127
3700.1360 0.0138
3700.1370 0.0164
3700.1380 0.0173
3700.1390 0.0178
3700.1400 0.0202
3700.1410 0.0195
3700.1420 0.0179
3700.1430 0.0256
3700.1440 0.0191
3700.1450 0.0267
3700.1460 0.0258
3700.1470 0.0203
3700.1480 0.0213
3700.1490 0.0175
3700.1500 0.0147
3700.1510 0.0182
3700.1520 0.0156
3700.1530 0.0128
3700.1540 0.0157
3700.1550 0.0142
3700.1560 0.0123
3700.1570 0.0124
3700.1580 0.0117
3700.1590 0.0122
3700.1600 0.0124
3700.1610 0.0108
3700.1620 0.0107
3700.1630 0.0113
3700.1640 0.0113
3700.1650 0.0120
3700.1660 0.0119
3700.1670 0.0114
3700.1680 0.0121
3700.1690 0.0117
3700.1700 0.0112
3700.1710 0.0111
3700.1720 0.0116
3700.1730 0.0106
3700.1740 0.0116
3700.1750 0.0113
3700.1760 0.0110
3700.1770 0.0107
3700.1780 0.0115
3700.1790 0.0113
3700.1800 0.0115
3700.1810 0.0114
3700.1820 0.0137
3700.1830 0.0131
3700.1840 0.0121
3700.1850 0.0116
3700.1860 0.0115
3700.1870 0.0123
3700.1880 0.0116
3700.1890 0.0112
3700.1900 0.0109
3700.1910 0.0110
3700.1920 0.0112
3700.1930 0.0105
3700.1940 0.0107
3700.1950 0.0100
3700.1960 0.0100
3700.1970 0.0099
3700.1980 0.0112
3700.1990 0.0107
3700.2000 0.0121
3700.2010 0.0111
3700.2020 0.0105
3700.2030 0.0113
3700.2040 0.0114
3700.2050 0.0111
3700.2060 0.0103
3700.2070 0.0114
3700.2080 0.0110
3700.2090 0.0115
3700.2100 0.0123
3700.2110 0.0122
3700.2120 0.0127
3700.2130 0.0145
3700.2140 0.0143
3700.2150 0.0147
3700.2160 0.0158
3700.2170 0.0175
3700.2180 0.0149
3700.2190 0.0161
3700.2200 0.0171
3700.2210 0.0189
3700.2220 0.0235
3700.2230 0.0166
3700.2240 0.0177
3700.2250 0.0143
3700.2260 0.0129
3700.2270 0.0129
3700.2280 0.0122
3700.2290 0.0128
3700.2300 0.0132
3700.2310 0.0143
3700.2320 0.0132
3700.2330 0.0131
3700.2340 0.0121
3700.2350 0.0129
3700.2360 0.0110
3700.2370 0.0123
3700.2380 0.0121
3700.2390 0.0109
3700.2400 0.0113
3700.2410 0.0114
3700.2420 0.0115
3700.2430 0.0110
3700.2440 0.0112
3700.2450 0.0115
3700.2460 0.0111
3700.2470 0.0118
3700.2480 0.0118
3700.2490 0.0108
3700.2500 0.0121
3700.2510 0.0114
3700.2520 0.0108
3700.2530 0.0114
3700.2540 0.0125
3700.2550 0.0120
3700.2560 0.0114
3700.2570 0.0118
3700.2580 0.0115
3700.2590 0.0115
3700.2600 0.0121
3700.2610 0.0115
3700.2620 0.0121
3700.2630 0.0118
3700.2640 0.0121
3700.2650 0.0118
3700.2660 0.0117
3700.2670 0.0118
3700.2680 0.0121
3700.2690 0.0127
3700.2700 0.0123
3700.2710 0.0126
3700.2720 0.0141
3700.2730 0.0129
3700.2740 0.0108
3700.2750 0.0130
3700.2760 0.0117
3700.2770 0.0114
3700.2780 0.0115
3700.2790 0.0107
3700.2800 0.0116
3700.2810 0.0110
3700.2820 0.0113
3700.2830 0.0111
3700.2840 0.0112
3700.2850 0.0118
3700.2860 0.0119
3700.2870 0.0105
3700.2880 0.0114
3700.2890 0.0118
3700.2900 0.0119
3700.2910 0.0137
3700.2920 0.0130
3700.2930 0.0141
3700.2940 0.0130
3700.2950 0.0150
3700.2960 0.0169
3700.2970 0.0164
3700.2980 0.0183
3700.2990 0.0262
3700.3000 0.0192
3700.3010 0.0277
3700.3020 0.0281
3700.3030 0.0276
3700.3040 0.0369
3700.3050 0.0385
3700.3060 0.0491
3700.3070 0.0450
3700.3080 0.0301
3700.3090 0.0189
3700.3100 0.0158
3700.3110 0.0161
3700.3120 0.0144
3700.3130 0.0150
3700.3140 0.0169
3700.3150 0.0147
3700.3160 0.0172
3700.3170 0.0157
3700.3180 0.0164
3700.3190 0.0163
3700.3200 0.0151
3700.3210 0.0178
3700.3220 0.0148
3700.3230 0.0222
3700.3240 0.0200
3700.3250 0.0332
3700.3260 0.0254
3700.3270 0.0204
3700.3280 0.0206
3700.3290 0.0170
3700.3300 0.0140
3700.3310 0.0137
3700.3320 0.0156
3700.3330 0.0135
3700.3340 0.0143
3700.3350 0.0156
3700.3360 0.0137
3700.3370 0.0125
3700.3380 0.0124
3700.3390 0.0123
3700.3400 0.0163
3700.3410 0.0141
3700.3420 0.0137
3700.3430 0.0136
3700.3440 0.0133
3700.3450 0.0144
3700.3460 0.0140
3700.3470 0.0148
3700.3480 0.0193
3700.3490 0.0132
3700.3500 0.0200
3700.3510 0.0197
3700.3520 0.0175
3700.3530 0.0176
3700.3540 0.0169
3700.3550 0.0188
3700.3560 0.0163
3700.3570 0.0178
3700.3580 0.0186
3700.3590 0.0172
3700.3600 0.0147
3700.3610 0.0130
3700.3620 0.0146
3700.3630 0.0130
3700.3640 0.0127
3700.3650 0.0129
3700.3660 0.0134
3700.3670 0.0133
3700.3680 0.0138
3700.3690 0.0132
3700.3700 0.0115
3700.3710 0.0123
3700.3720 0.0125
3700.3730 0.0124
3700.3740 0.0119
3700.3750 0.0133
3700.3760 0.0119
3700.3770 0.0130
3700.3780 0.0121
3700.3790 0.0120
3700.3800 0.0128
3700.3810 0.0122
3700.3820 0.0127
3700.3830 0.0123
3700.3840 0.0123
3700.3850 0.0117
3700.3860 0.0124
3700.3870 0.0124
3700.3880 0.0138
3700.3890 0.0125
3700.3900 0.0119
3700.3910 0.0129
3700.3920 0.0126
3700.3930 0.0130
3700.3940 0.0125
3700.3950 0.0131
3700.3960 0.0117
3700.3970 0.0133
3700.3980 0.0126
3700.3990 0.0135
3700.4000 0.0128
3700.4010 0.0121
3700.4020 0.0143
3700.4030 0.0130
3700.4040 0.0133
3700.4050 0.0135
3700.4060 0.0132
3700.4070 0.0133
3700.4080 0.0131
3700.4090 0.0125
3700.4100 0.0125
3700.4110 0.0139
3700.4120 0.0128
3700.4130 0.0138
3700.4140 0.0139
3700.4150 0.0149
3700.4160 0.0139
3700.4170 0.0156
3700.4180 0.0150
3700.4190 0.0224
3700.4200 0.0180
3700.4210 0.0173
3700.4220 0.0168
3700.4230 0.0180
3700.4240 0.0159
3700.4250 0.0175
3700.4260 0.0172
3700.4270 0.0134
3700.4280 0.0132
3700.4290 0.0180
3700.4300 0.0139
3700.4310 0.0174
3700.4320 0.0153
3700.4330 0.0159
3700.4340 0.0150
3700.4350 0.0169
3700.4360 0.0151
3700.4370 0.0144
3700.4380 0.0163
3700.4390 0.0149
3700.4400 0.0142
3700.4410 0.0176
3700.4420 0.0204
3700.4430 0.0229
3700.4440 0.0137
3700.4450 0.0239
3700.4460 0.0252
3700.4470 0.0241
3700.4480 0.0290
3700.4490 0.0350
3700.4500 0.0326
3700.4510 0.0290
3700.4520 0.0340
3700.4530 0.0367
3700.4540 0.0313
3700.4550 0.0258
3700.4560 0.0262
3700.4570 0.0205
3700.4580 0.0153
3700.4590 0.0149
3700.4600 0.0179
3700.4610 0.0157
3700.4620 0.0149
3700.4630 0.0146
3700.4640 0.0134
3700.4650 0.0136
3700.4660 0.0150
3700.4670 0.0156
3700.4680 0.0133
3700.4690 0.0147
3700.4700 0.0133
3700.4710 0.0137
3700.4720 0.0135
3700.4730 0.0126
3700.4740 0.0133
3700.4750 0.0143
3700.4760 0.0150
3700.4770 0.0139
3700.4780 0.0124
3700.4790 0.0135
3700.4800 0.0155
3700.4810 0.0146
3700.4820 0.0130
3700.4830 0.0126
3700.4840 0.0127
3700.4850 0.0134
3700.4860 0.0123
3700.4870 0.0133
3700.4880 0.0136
3700.4890 0.0141
3700.4900 0.0132
3700.4910 0.0138
3700.4920 0.0128
3700.4930 0.0133
3700.4940 0.0147
3700.4950 0.0129
3700.4960 0.0138
3700.4970 0.0140
3700.4980 0.0135
3700.4990 0.0132
3700.5000 0.0129
3700.5010 0.0133
3700.5020 0.0142
3700.5030 0.0138
3700.5040 0.0141
3700.5050 0.0132
3700.5060 0.0136
3700.5070 0.0147
3700.5080 0.0149
3700.5090 0.0135
3700.5100 0.0143
3700.5110 0.0144
3700.5120 0.0170
3700.5130 0.0151
3700.5140 0.0164
3700.5150 0.0263
3700.5160 0.0242
3700.5170 0.0208
3700.5180 0.0174
3700.5190 0.0170
3700.5200 0.0181
3700.5210 0.0151
3700.5220 0.0135
3700.5230 0.0146
3700.5240 0.0146
3700.5250 0.0154
3700.5260 0.0146
3700.5270 0.0123
3700.5280 0.0134
3700.5290 0.0129
3700.5300 0.0139
3700.5310 0.0146
3700.5320 0.0131
3700.5330 0.0122
3700.5340 0.0131
3700.5350 0.0126
3700.5360 0.0129
3700.5370 0.0143
3700.5380 0.0160
3700.5390 0.0123
3700.5400 0.0133
3700.5410 0.0146
3700.5420 0.0131
3700.5430 0.0141
3700.5440 0.0140
3700.5450 0.0160
3700.5460 0.0137
3700.5470 0.0160
3700.5480 0.0148
3700.5490 0.0147
3700.5500 0.0152
3700.5510 0.0163
3700.5520 0.0139
3700.5530 0.0147
3700.5540 0.0130
3700.5550 0.0140
3700.5560 0.0159
3700.5570 0.0146
3700.5580 0.0161
3700.5590 0.0173
3700.5600 0.0145
3700.5610 0.0135
3700.5620 0.0139
3700.5630 0.0127
3700.5640 0.0137
3700.5650 0.0132
3700.5660 0.0150
3700.5670 0.0136
3700.5680 0.0164
3700.5690 0.0191
3700.5700 0.0156
3700.5710 0.0148
3700.5720 0.0173
3700.5730 0.0167
3700.5740 0.0189
3700.5750 0.0195
3700.5760 0.0153
3700.5770 0.0146
3700.5780 0.0183
3700.5790 0.0168
3700.5800 0.0208
3700.5810 0.0135
3700.5820 0.0152
3700.5830 0.0142
3700.5840 0.0132
3700.5850 0.0168
3700.5860 0.0135
3700.5870 0.0167
3700.5880 0.0189
3700.5890 0.0193
3700.5900 0.0136
3700.5910 0.0154
3700.5920 0.0154
3700.5930 0.0185
3700.5940 0.0265
3700.5950 0.0207
3700.5960 0.0320
3700.5970 0.0232
3700.5980 0.0310
3700.5990 0.0288
3700.6000 0.0297
3700.6010 0.0216
3700.6020 0.0223
3700.6030 0.0225
3700.6040 0.0230
3700.6050 0.0170
3700.6060 0.0197
3700.6070 0.0175
3700.6080 0.0168
3700.6090 0.0210
3700.6100 0.0174
3700.6110 0.0148
3700.6120 0.0198
3700.6130 0.0173
3700.6140 0.0162
3700.6150 0.0145
3700.6160 0.0158
3700.6170 0.0137
3700.6180 0.0149
3700.6190 0.0146
3700.6200 0.0161
3700.6210 0.0168
3700.6220 0.0145
3700.6230 0.0165
3700.6240 0.0141
3700.6250 0.0166
3700.6260 0.0131
3700.6270 0.0141
3700.6280 0.0163
3700.6290 0.0167
3700.6300 0.0139
3700.6310 0.0158
3700.6320 0.0138
3700.6330 0.0155
3700.6340 0.0139
3700.6350 0.0126
3700.6360 0.0132
3700.6370 0.0126
3700.6380 0.0141
3700.6390 0.0139
3700.6400 0.0142
3700.6410 0.0152
3700.6420 0.0136
3700.6430 0.0147
3700.6440 0.0157
3700.6450 0.0150
3700.6460 0.0138
3700.6470 0.0149
3700.6480 0.0143
3700.6490 0.0129
3700.6500 0.0136
3700.6510 0.0142
3700.6520 0.0159
3700.6530 0.0126
3700.6540 0.0130
3700.6550 0.0141
3700.6560 0.0140
3700.6570 0.0137
3700.6580 0.0148
3700.6590 0.0132
3700.6600 0.0154
3700.6610 0.0152
3700.6620 0.0152
3700.6630 0.0136
3700.6640 0.0141
3700.6650 0.0143
3700.6660 0.0133
3700.6670 0.0138
3700.6680 0.0126
3700.6690 0.0135
3700.6700 0.0129
3700.6710 0.0147
3700.6720 0.0141
3700.6730 0.0132
3700.6740 0.0125
3700.6750 0.0132
3700.6760 0.0128
3700.6770 0.0136
3700.6780 0.0132
3700.6790 0.0168
3700.6800 0.0130
3700.6810 0.0142
3700.6820 0.0143
3700.6830 0.0153
3700.6840 0.0156
3700.6850 0.0156
3700.6860 0.0198
3700.6870 0.0221
3700.6880 0.0260
3700.6890 0.0156
3700.6900 0.0223
3700.6910 0.0200
3700.6920 0.0197
3700.6930 0.0145
3700.6940 0.0197
3700.6950 0.0130
3700.6960 0.0240
3700.6970 0.0225
3700.6980 0.0218
3700.6990 0.0198
3700.7000 0.0199
3700.7010 0.0180
3700.7020 0.0211
3700.7030 0.0172
3700.7040 0.0156
3700.7050 0.0168
3700.7060 0.0145
3700.7070 0.0168
3700.7080 0.0140
3700.7090 0.0130
3700.7100 0.0128
3700.7110 0.0138
3700.7120 0.0149
3700.7130 0.0137
3700.7140 0.0155
3700.7150 0.0163
3700.7160 0.0138
3700.7170 0.0143
3700.7180 0.0141
3700.7190 0.0153
3700.7200 0.0166
3700.7210 0.0170
3700.7220 0.0137
3700.7230 0.0175
3700.7240 0.0198
3700.7250 0.0188
3700.7260 0.0167
3700.7270 0.0158
3700.7280 0.0138
3700.7290 0.0131
3700.7300 0.0149
3700.7310 0.0154
3700.7320 0.0134
3700.7330 0.0184
3700.7340 0.0180
3700.7350 0.0186
3700.7360 0.0173
3700.7370 0.0181
3700.7380 0.0145
3700.7390 0.0181
3700.7400 0.0127
3700.7410 0.0164
3700.7420 0.0158
3700.7430 0.0138
3700.7440 0.0136
3700.7450 0.0156
3700.7460 0.0181
3700.7470 0.0189
3700.7480 0.0184
3700.7490 0.0151
3700.7500 0.0179
3700.7510 0.0195
3700.7520 0.0204
3700.7530 0.0231
3700.7540 0.0258
3700.7550 0.0481
3700.7560 0.0668
3700.7570 0.0787
3700.7580 0.0576
3700.7590 0.0379
3700.7600 0.0385
3700.7610 0.0163
3700.7620 0.0298
3700.7630 0.0180
3700.7640 0.0158
3700.7650 0.0189
3700.7660 0.0185
3700.7670 0.0175
3700.7680 0.0154
3700.7690 0.0193
3700.7700 0.0141
3700.7710 0.0152
3700.7720 0.0193
3700.7730 0.0170
3700.7740 0.0204
3700.7750 0.0225
3700.7760 0.0361
3700.7770 0.0244
3700.7780 0.0260
3700.7790 0.0306
3700.7800 0.0297
3700.7810 0.0339
3700.7820 0.0360
3700.7830 0.0255
3700.7840 0.0171
3700.7850 0.0219
3700.7860 0.0252
3700.7870 0.0370
3700.7880 0.0326
3700.7890 0.0392
3700.7900 0.0375
3700.7910 0.0270
3700.7920 0.0176
3700.7930 0.0199
3700.7940 0.0272
3700.7950 0.0265
3700.7960 0.0380
3700.7970 0.0247
3700.7980 0.0274
3700.7990 0.0277
3700.8000 0.0169
3700.8010 0.0192
3700.8020 0.0222
3700.8030 0.0302
3700.8040 0.0199
3700.8050 0.0245
3700.8060 0.0224
3700.8070 0.0225
3700.8080 0.0263
3700.8090 0.0176
3700.8100 0.0248
3700.8110 0.0161
3700.8120 0.0149
3700.8130 0.0179
3700.8140 0.0129
3700.8150 0.0184
3700.8160 0.0210
3700.8170 0.0187
3700.8180 0.0215
3700.8190 0.0236
3700.8200 0.0162
3700.8210 0.0212
3700.8220 0.0164
3700.8230 0.0185
3700.8240 0.0199
3700.8250 0.0130
3700.8260 0.0154
3700.8270 0.0157
3700.8280 0.0165
3700.8290 0.0139
3700.8300 0.0169
3700.8310 0.0135
3700.8320 0.0166
3700.8330 0.0139
3700.8340 0.0155
3700.8350 0.0132
3700.8360 0.0143
3700.8370 0.0148
3700.8380 0.0141
3700.8390 0.0172
3700.8400 0.0154
3700.8410 0.0156
3700.8420 0.0143
3700.8430 0.0161
3700.8440 0.0147
3700.8450 0.0136
3700.8460 0.0135
3700.8470 0.0139
3700.8480 0.0144
3700.8490 0.0139
3700.8500 0.0160
3700.8510 0.0157
3700.8520 0.0163
3700.8530 0.0179
3700.8540 0.0148
3700.8550 0.0175
3700.8560 0.0178
3700.8570 0.0149
3700.8580 0.0160
3700.8590 0.0147
3700.8600 0.0143
3700.8610 0.0153
3700.8620 0.0134
3700.8630 0.0132
3700.8640 0.0135
3700.8650 0.0152
3700.8660 0.0164
3700.8670 0.0150
3700.8680 0.0143
3700.8690 0.0155
3700.8700 0.0145
3700.8710 0.0145
3700.8720 0.0140
3700.8730 0.0148
3700.8740 0.0129
3700.8750 0.0139
3700.8760 0.0146
3700.8770 0.0132
3700.8780 0.0138
3700.8790 0.0131
3700.8800 0.0134
3700.8810 0.0140
3700.8820 0.0138
3700.8830 0.0135
3700.8840 0.0130
3700.8850 0.0134
3700.8860 0.0137
3700.8870 0.0132
3700.8880 0.0146
3700.8890 0.0133
3700.8900 0.0137
3700.8910 0.0135
3700.8920 0.0155
3700.8930 0.0143
3700.8940 0.0140
3700.8950 0.0134
3700.8960 0.0141
3700.8970 0.0139
3700.8980 0.0139
3700.8990 0.0171
3700.9000 0.0151
3700.9010 0.0171
3700.9020 0.0197
3700.9030 0.0128
3700.9040 0.0181
3700.9050 0.0138
3700.9060 0.0170
3700.9070 0.0137
3700.9080 0.0135
3700.9090 0.0153
3700.9100 0.0144
3700.9110 0.0145
3700.9120 0.0147
3700.9130 0.0149
3700.9140 0.0162
3700.9150 0.0142
3700.9160 0.0146
3700.9170 0.0140
3700.9180 0.0147
3700.9190 0.0153
3700.9200 0.0157
3700.9210 0.0162
3700.9220 0.0190
3700.9230 0.0145
3700.9240 0.0182
3700.9250 0.0214
3700.9260 0.0181
3700.9270 0.0200
3700.9280 0.0176
3700.9290 0.0191
3700.9300 0.0213
3700.9310 0.0240
3700.9320 0.0173
3700.9330 0.0559
3700.9340 0.0643
3700.9350 0.0639
3700.9360 0.0492
3700.9370 0.0772
3700.9380 0.0512
3700.9390 0.0322
3700.9400 0.0366
3700.9410 0.0292
3700.9420 0.0213
3700.9430 0.0189
3700.9440 0.0212
3700.9450 0.0167
3700.9460 0.0159
3700.9470 0.0198
3700.9480 0.0258
3700.9490 0.0142
3700.9500 0.0241
3700.9510 0.0248
3700.9520 0.0211
3700.9530 0.0214
3700.9540 0.0293
3700.9550 0.0213
3700.9560 0.0179
3700.9570 0.0196
3700.9580 0.0191
3700.9590 0.0194
3700.9600 0.0275
3700.9610 0.0250
3700.9620 0.0181
3700.9630 0.0206
3700.9640 0.0222
3700.9650 0.0296
3700.9660 0.0247
3700.9670 0.0192
3700.9680 0.0201
3700.9690 0.0133
3700.9700 0.0145
3700.9710 0.0132
3700.9720 0.0134
3700.9730 0.0154
3700.9740 0.0158
3700.9750 0.0172
3700.9760 0.0144
3700.9770 0.0165
3700.9780 0.0143
3700.9790 0.0161
3700.9800 0.0145
3700.9810 0.0142
3700.9820 0.0158
3700.9830 0.0154
3700.9840 0.0158
3700.9850 0.0154
3700.9860 0.0147
3700.9870 0.0140
3700.9880 0.0207
3700.9890 0.0171
3700.9900 0.0160
3700.9910 0.0172
3700.9920 0.0178
3700.9930 0.0160
3700.9940 0.0184
3700.9950 0.0168
3700.9960 0.0148
3700.9970 0.0171
3700.9980 0.0196
3700.9990 0.0231
3701.0000 0.0389
3701.0010 0.0473
3701.0020 0.0542
3701.0030 0.0557
3701.0040 0.0793
3701.0050 0.0639
3701.0060 0.0783
3701.0070 0.1342
3701.0080 0.1650
3701.0090 0.1454
3701.0100 0.1551
3701.0110 0.1679
3701.0120 0.1695
3701.0130 0.1410
3701.0140 0.0793
3701.0150 0.0625
3701.0160 0.0351
3701.0170 0.0338
3701.0180 0.0286
3701.0190 0.0290
3701.0200 0.0265
3701.0210 0.0304
3701.0220 0.0180
3701.0230 0.0173
3701.0240 0.0165
3701.0250 0.0215
3701.0260 0.0239
3701.0270 0.0157
3701.0280 0.0184
3701.0290 0.0139
3701.0300 0.0130
3701.0310 0.0148
3701.0320 0.0145
3701.0330 0.0158
3701.0340 0.0152
3701.0350 0.0166
3701.0360 0.0158
3701.0370 0.0137
3701.0380 0.0145
3701.0390 0.0152
3701.0400 0.0141
3701.0410 0.0141
3701.0420 0.0133
3701.0430 0.0141
3701.0440 0.0156
3701.0450 0.0132
3701.0460 0.0152
3701.0470 0.0129
3701.0480 0.0152
3701.0490 0.0146
3701.0500 0.0135
3701.0510 0.0144
3701.0520 0.0171
3701.0530 0.0137
3701.0540 0.0156
3701.0550 0.0149
3701.0560 0.0136
3701.0570 0.0137
3701.0580 0.0144
3701.0590 0.0139
3701.0600 0.0178
3701.0610 0.0137
3701.0620 0.0156
3701.0630 0.0124
3701.0640 0.0130
3701.0650 0.0154
3701.0660 0.0138
3701.0670 0.0141
3701.0680 0.0131
3701.0690 0.0131
3701.0700 0.0141
3701.0710 0.0131
3701.0720 0.0135
3701.0730 0.0137
3701.0740 0.0146
3701.0750 0.0129
3701.0760 0.0140
3701.0770 0.0148
3701.0780 0.0145
3701.0790 0.0148
3701.0800 0.0134
3701.0810 0.0137
3701.0820 0.0143
3701.0830 0.0153
3701.0840 0.0132
3701.0850 0.0143
3701.0860 0.0155
3701.0870 0.0143
3701.0880 0.0142
3701.0890 0.0173
3701.0900 0.0170
3701.0910 0.0171
3701.0920 0.0171
3701.0930 0.0213
3701.0940 0.0355
3701.0950 0.0159
3701.0960 0.0175
3701.0970 0.0152
3701.0980 0.0162
3701.0990 0.0131
3701.1000 0.0146
3701.1010 0.0144
3701.1020 0.0174
3701.1030 0.0169
3701.1040 0.0159
3701.1050 0.0180
3701.1060 0.0151
3701.1070 0.0141
3701.1080 0.0180
3701.1090 0.0157
3701.1100 0.0144
3701.1110 0.0159
3701.1120 0.0163
3701.1130 0.0173
3701.1140 0.0196
3701.1150 0.0161
3701.1160 0.0164
3701.1170 0.0199
3701.1180 0.0185
3701.1190 0.0160
3701.1200 0.0195
3701.1210 0.0232
3701.1220 0.0198
3701.1230 0.0152
3701.1240 0.0188
3701.1250 0.0257
3701.1260 0.0196
3701.1270 0.0174
3701.1280 0.0168
3701.1290 0.0226
3701.1300 0.0243
3701.1310 0.0162
3701.1320 0.0233
3701.1330 0.0260
3701.1340 0.0170
3701.1350 0.0194
3701.1360 0.0167
3701.1370 0.0183
3701.1380 0.0198
3701.1390 0.0170
3701.1400 0.0169
3701.1410 0.0201
3701.1420 0.0149
3701.1430 0.0179
3701.1440 0.0162
3701.1450 0.0187
3701.1460 0.0174
3701.1470 0.0160
3701.1480 0.0159
3701.1490 0.0204
3701.1500 0.0149
3701.1510 0.0183
3701.1520 0.0170
3701.1530 0.0152
3701.1540 0.0164
3701.1550 0.0159
3701.1560 0.0174
3701.1570 0.0203
3701.1580 0.0203
3701.1590 0.0148
3701.1600 0.0179
3701.1610 0.0179
3701.1620 0.0160
3701.1630 0.0194
3701.1640 0.0186
3701.1650 0.0255
3701.1660 0.0254
3701.1670 0.0152
3701.1680 0.0193
3701.1690 0.0221
3701.1700 0.0306
3701.1710 0.0322
3701.1720 0.0503
3701.1730 0.0427
3701.1740 0.0322
3701.1750 0.0464
3701.1760 0.0591
3701.1770 0.0696
3701.1780 0.0664
3701.1790 0.0822
3701.1800 0.0730
3701.1810 0.0670
3701.1820 0.0396
3701.1830 0.0301
3701.1840 0.0416
3701.1850 0.0363
3701.1860 0.0255
3701.1870 0.0249
3701.1880 0.0229
3701.1890 0.0212
3701.1900 0.0250
3701.1910 0.0204
3701.1920 0.0182
3701.1930 0.0167
3701.1940 0.0212
3701.1950 0.0163
3701.1960 0.0203
3701.1970 0.0154
3701.1980 0.0205
3701.1990 0.0213
3701.2000 0.0213
3701.2010 0.0228
3701.2020 0.0170
3701.2030 0.0175
3701.2040 0.0165
3701.2050 0.0187
3701.2060 0.0147
3701.2070 0.0151
3701.2080 0.0154
3701.2090 0.0142
3701.2100 0.0151
3701.2110 0.0164
3701.2120 0.0130
3701.2130 0.0157
3701.2140 0.0135
3701.2150 0.0180
3701.2160 0.0146
3701.2170 0.0136
3701.2180 0.0149
3701.2190 0.0142
3701.2200 0.0146
3701.2210 0.0157
3701.2220 0.0142
3701.2230 0.0187
3701.2240 0.0138
3701.2250 0.0178
3701.2260 0.0203
3701.2270 0.0180
3701.2280 0.0158
3701.2290 0.0136
3701.2300 0.0161
3701.2310 0.0152
3701.2320 0.0140
3701.2330 0.0148
3701.2340 0.0127
3701.2350 0.0150
3701.2360 0.0156
3701.2370 0.0147
3701.2380 0.0189
3701.2390 0.0164
3701.2400 0.0286
3701.2410 0.0160
3701.2420 0.0263
3701.2430 0.0159
3701.2440 0.0177
3701.2450 0.0150
3701.2460 0.0149
3701.2470 0.0147
3701.2480 0.0138
3701.2490 0.0159
3701.2500 0.0154
3701.2510 0.0177
3701.2520 0.0140
3701.2530 0.0180
3701.2540 0.0135
3701.2550 0.0148
3701.2560 0.0151
3701.2570 0.0165
3701.2580 0.0159
3701.2590 0.0146
3701.2600 0.0158
3701.2610 0.0132
3701.2620 0.0171
3701.2630 0.0138
3701.2640 0.0155
3701.2650 0.0136
3701.2660 0.0141
3701.2670 0.0157
3701.2680 0.0143
3701.2690 0.0141
3701.2700 0.0172
3701.2710 0.0220
3701.2720 0.0170
3701.2730 0.0170
3701.2740 0.0155
3701.2750 0.0141
3701.2760 0.0160
3701.2770 0.0139
3701.2780 0.0149
3701.2790 0.0137
3701.2800 0.0154
3701.2810 0.0154
3701.2820 0.0165
3701.2830 0.0152
3701.2840 0.0125
3701.2850 0.0147
3701.2860 0.0159
3701.2870 0.0158
3701.2880 0.0155
3701.2890 0.0177
3701.2900 0.0162
3701.2910 0.0181
3701.2920 0.0148
3701.2930 0.0188
3701.2940 0.0157
3701.2950 0.0164
3701.2960 0.0155
3701.2970 0.0187
3701.2980 0.0162
3701.2990 0.0240
3701.3000 0.0177
3701.3010 0.0162
3701.3020 0.0182
3701.3030 0.0210
3701.3040 0.0266
3701.3050 0.0210
3701.3060 0.0250
3701.3070 0.0217
3701.3080 0.0242
3701.3090 0.0210
3701.3100 0.0211
3701.3110 0.0226
3701.3120 0.0233
3701.3130 0.0221
3701.3140 0.0289
3701.3150 0.0297
3701.3160 0.0276
3701.3170 0.0280
3701.3180 0.0251
3701.3190 0.0381
3701.3200 0.0360
3701.3210 0.0362
3701.3220 0.0472
3701.3230 0.0628
3701.3240 0.0408
3701.3250 0.0615
3701.3260 0.0637
3701.3270 0.0696
3701.3280 0.0948
3701.3290 0.0654
3701.3300 0.0763
3701.3310 0.0619
3701.3320 0.0859
3701.3330 0.1044
3701.3340 0.0958
3701.3350 0.0905
3701.3360 0.0836
3701.3370 0.0526
3701.3380 0.0726
3701.3390 0.0583
3701.3400 0.0394
3701.3410 0.0463
3701.3420 0.0405
3701.3430 0.0351
3701.3440 0.0363
3701.3450 0.0371
3701.3460 0.0258
3701.3470 0.0233
3701.3480 0.0215
3701.3490 0.0259
3701.3500 0.0259
3701.3510 0.0271
3701.3520 0.0275
3701.3530 0.0276
3701.3540 0.0225
3701.3550 0.0263
3701.3560 0.0222
3701.3570 0.0258
3701.3580 0.0213
3701.3590 0.0181
3701.3600 0.0179
3701.3610 0.0250
3701.3620 0.0197
3701.3630 0.0223
3701.3640 0.0167
3701.3650 0.0171
3701.3660 0.0135
3701.3670 0.0145
3701.3680 0.0168
3701.3690 0.0173
3701.3700 0.0158
3701.3710 0.0156
3701.3720 0.0147
3701.3730 0.0147
3701.3740 0.0165
3701.3750 0.0165
3701.3760 0.0158
3701.3770 0.0174
3701.3780 0.0170
3701.3790 0.0205
3701.3800 0.0241
3701.3810 0.0157
3701.3820 0.0225
3701.3830 0.0168
3701.3840 0.0184
3701.3850 0.0156
3701.3860 0.0158
3701.3870 0.0191
3701.3880 0.0191
3701.3890 0.0162
3701.3900 0.0158
3701.3910 0.0177
3701.3920 0.0226
3701.3930 0.0272
3701.3940 0.0245
3701.3950 0.0211
3701.3960 0.0218
3701.3970 0.0164
3701.3980 0.0208
3701.3990 0.0175
3701.4000 0.0198
3701.4010 0.0176
3701.4020 0.0186
3701.4030 0.0192
3701.4040 0.0158
3701.4050 0.0191
3701.4060 0.0147
3701.4070 0.0170
3701.4080 0.0171
3701.4090 0.0203
3701.4100 0.0267
3701.4110 0.0529
3701.4120 0.0345
3701.4130 0.0197
3701.4140 0.0163
3701.4150 0.0162
3701.4160 0.0163
3701.4170 0.0168
3701.4180 0.0149
3701.4190 0.0178
3701.4200 0.0143
3701.4210 0.0146
3701.4220 0.0161
3701.4230 0.0162
3701.4240 0.0152
3701.4250 0.0157
3701.4260 0.0172
3701.4270 0.0152
3701.4280 0.0171
3701.4290 0.0164
3701.4300 0.0213
3701.4310 0.0235
3701.4320 0.0324
3701.4330 0.0251
3701.4340 0.0153
3701.4350 0.0141
3701.4360 0.0164
3701.4370 0.0173
3701.4380 0.0162
3701.4390 0.0150
3701.4400 0.0159
3701.4410 0.0158
3701.4420 0.0173
3701.4430 0.0154
3701.4440 0.0161
3701.4450 0.0166
3701.4460 0.0180
3701.4470 0.0162
3701.4480 0.0169
3701.4490 0.0149
3701.4500 0.0241
3701.4510 0.0202
3701.4520 0.0176
3701.4530 0.0168
3701.4540 0.0222
3701.4550 0.0176
3701.4560 0.0192
3701.4570 0.0214
3701.4580 0.0214
3701.4590 0.0228
3701.4600 0.0175
3701.4610 0.0270
3701.4620 0.0270
3701.4630 0.0247
3701.4640 0.0185
3701.4650 0.0239
3701.4660 0.0307
3701.4670 0.0806
3701.4680 0.0718
3701.4690 0.0556
3701.4700 0.0406
3701.4710 0.0616
3701.4720 0.0373
3701.4730 0.0380
3701.4740 0.0385
3701.4750 0.0380
3701.4760 0.0377
3701.4770 0.0379
3701.4780 0.0354
3701.4790 0.0371
3701.4800 0.0239
3701.4810 0.0282
3701.4820 0.0230
3701.4830 0.0326
3701.4840 0.0195
3701.4850 0.0224
3701.4860 0.0238
3701.4870 0.0261
3701.4880 0.0254
3701.4890 0.0250
3701.4900 0.0265
3701.4910 0.0235
3701.4920 0.0264
3701.4930 0.0309
3701.4940 0.0515
3701.4950 0.0471
3701.4960 0.0442
3701.4970 0.0411
3701.4980 0.0331
3701.4990 0.0289
3701.5000 0.0312
3701.5010 0.0316
3701.5020 0.0342
3701.5030 0.0942
3701.5040 0.0541
3701.5050 0.0528
3701.5060 0.0451
3701.5070 0.0423
3701.5080 0.0563
3701.5090 0.0471
3701.5100 0.0404
3701.5110 0.0448
3701.5120 0.0411
3701.5130 0.0308
3701.5140 0.0459
3701.5150 0.0407
3701.5160 0.0293
3701.5170 0.0470
3701.5180 0.0447
3701.5190 0.0493
3701.5200 0.0317
3701.5210 0.0821
3701.5220 0.1427
3701.5230 0.0519
3701.5240 0.0538
3701.5250 0.0471
3701.5260 0.0409
3701.5270 0.0375
3701.5280 0.0322
3701.5290 0.0325
3701.5300 0.0305
3701.5310 0.0271
3701.5320 0.0417
3701.5330 0.0353
3701.5340 0.0306
3701.5350 0.0303
3701.5360 0.0538
3701.5370 0.0414
3701.5380 0.0326
3701.5390 0.0428
3701.5400 0.0530
3701.5410 0.0421
3701.5420 0.0487
3701.5430 0.0409
3701.5440 0.0461
3701.5450 0.0376
3701.5460 0.0308
3701.5470 0.0377
3701.5480 0.0372
3701.5490 0.0351
3701.5500 0.0361
3701.5510 0.0302
3701.5520 0.0297
3701.5530 0.0376
3701.5540 0.0327
3701.5550 0.0383
3701.5560 0.0328
3701.5570 0.0430
3701.5580 0.0339
3701.5590 0.0326
3701.5600 0.0386
3701.5610 0.0292
3701.5620 0.0243
3701.5630 0.0236
3701.5640 0.0328
3701.5650 0.0318
3701.5660 0.0387
3701.5670 0.0366
3701.5680 0.0295
3701.5690 0.0295
3701.5700 0.0400
3701.5710 0.0488
3701.5720 0.0330
3701.5730 0.0271
3701.5740 0.0469
3701.5750 0.0470
3701.5760 0.0363
3701.5770 0.0390
3701.5780 0.0359
3701.5790 0.0330
3701.5800 0.0441
3701.5810 0.0276
3701.5820 0.0264
3701.5830 0.0342
3701.5840 0.0435
3701.5850 0.0391
3701.5860 0.0373
3701.5870 0.0418
3701.5880 0.0405
3701.5890 0.0408
3701.5900 0.0427
3701.5910 0.0502
3701.5920 0.0507
3701.5930 0.0374
3701.5940 0.0425
3701.5950 0.0437
3701.5960 0.0524
3701.5970 0.0418
3701.5980 0.0508
3701.5990 0.0671
3701.6000 0.0647
3701.6010 0.0472
3701.6020 0.0429
3701.6030 0.0576
3701.6040 0.0429
3701.6050 0.0692
3701.6060 0.0598
3701.6070 0.0901
3701.6080 0.1333
3701.6090 0.1682
3701.6100 0.2350
3701.6110 0.2993
3701.6120 0.2919
3701.6130 0.2826
3701.6140 0.3022
3701.6150 0.3098
3701.6160 0.2211
3701.6170 0.1874
3701.6180 0.1073
3701.6190 0.0841
3701.6200 0.0653
3701.6210 0.0582
3701.6220 0.0543
3701.6230 0.0466
3701.6240 0.0418
3701.6250 0.0444
3701.6260 0.0363
3701.6270 0.0405
3701.6280 0.0752
3701.6290 0.0505
3701.6300 0.0518
3701.6310 0.0385
3701.6320 0.0497
3701.6330 0.0385
3701.6340 0.0463
3701.6350 0.0360
3701.6360 0.0374
3701.6370 0.0399
3701.6380 0.0421
3701.6390 0.0354
3701.6400 0.0356
3701.6410 0.0293
3701.6420 0.0393
3701.6430 0.0220
3701.6440 0.0240
3701.6450 0.0212
3701.6460 0.0341
3701.6470 0.0331
3701.6480 0.0320
3701.6490 0.0365
3701.6500 0.0299
3701.6510 0.0288
3701.6520 0.0319
3701.6530 0.0340
3701.6540 0.0302
3701.6550 0.0441
3701.6560 0.0348
3701.6570 0.0374
3701.6580 0.0226
3701.6590 0.0292
3701.6600 0.0403
3701.6610 0.0677
3701.6620 0.0347
3701.6630 0.0507
3701.6640 0.0433
3701.6650 0.0423
3701.6660 0.0476
3701.6670 0.0519
3701.6680 0.0369
3701.6690 0.0482
3701.6700 0.0344
3701.6710 0.0485
3701.6720 0.0291
3701.6730 0.0388
3701.6740 0.0382
3701.6750 0.0450
3701.6760 0.0373
3701.6770 0.0420
3701.6780 0.0442
3701.6790 0.0421
3701.6800 0.0518
3701.6810 0.0493
3701.6820 0.0483
3701.6830 0.0548
3701.6840 0.0492
3701.6850 0.0486
3701.6860 0.0575
3701.6870 0.0329
3701.6880 0.0396
3701.6890 0.0468
3701.6900 0.0362
3701.6910 0.0337
3701.6920 0.0336
3701.6930 0.0334
3701.6940 0.0324
3701.6950 0.0353
3701.6960 0.0484
3701.6970 0.0340
3701.6980 0.0251
3701.6990 0.0284
3701.7000 0.0282
3701.7010 0.0303
3701.7020 0.0252
3701.7030 0.0291
3701.7040 0.0312
3701.7050 0.0244
3701.7060 0.0267
3701.7070 0.0184
3701.7080 0.0267
3701.7090 0.0225
3701.7100 0.0298
3701.7110 0.0274
3701.7120 0.0247
3701.7130 0.0273
3701.7140 0.0321
3701.7150 0.0310
3701.7160 0.0237
3701.7170 0.0303
3701.7180 0.0250
3701.7190 0.0262
3701.7200 0.0292
3701.7210 0.0232
3701.7220 0.0265
3701.7230 0.0162
3701.7240 0.0339
3701.7250 0.0277
3701.7260 0.0243
3701.7270 0.0253
3701.7280 0.0201
3701.7290 0.0222
3701.7300 0.0270
3701.7310 0.0199
3701.7320 0.0233
3701.7330 0.0142
3701.7340 0.0258
3701.7350 0.0215
3701.7360 0.0163
3701.7370 0.0285
3701.7380 0.0334
3701.7390 0.0280
3701.7400 0.0193
3701.7410 0.0358
3701.7420 0.0262
3701.7430 0.0234
3701.7440 0.0313
3701.7450 0.0225
3701.7460 0.0247
3701.7470 0.0361
3701.7480 0.0257
3701.7490 0.0294
3701.7500 0.0234
3701.7510 0.0295
3701.7520 0.0216
3701.7530 0.0223
3701.7540 0.0225
3701.7550 0.0286
3701.7560 0.0255
3701.7570 0.0193
3701.7580 0.0352
3701.7590 0.0173
3701.7600 0.0279
3701.7610 0.0229
3701.7620 0.0230
3701.7630 0.0330
3701.7640 0.0185
3701.7650 0.0187
3701.7660 0.0170
3701.7670 0.0172
3701.7680 0.0250
3701.7690 0.0257
3701.7700 0.0280
3701.7710 0.0194
3701.7720 0.0174
3701.7730 0.0239
3701.7740 0.0225
3701.7750 0.0285
3701.7760 0.0193
3701.7770 0.0184
3701.7780 0.0128
3701.7790 0.0169
3701.7800 0.0163
3701.7810 0.0187
3701.7820 0.0177
3701.7830 0.0163
3701.7840 0.0176
3701.7850 0.0235
3701.7860 0.0150
3701.7870 0.0175
3701.7880 0.0202
3701.7890 0.0187
3701.7900 0.0289
3701.7910 0.0146
3701.7920 0.0239
3701.7930 0.0179
3701.7940 0.0209
3701.7950 0.0270
3701.7960 0.0235
3701.7970 0.0234
3701.7980 0.0192
3701.7990 0.0203
3701.8000 0.0241
3701.8010 0.0238
3701.8020 0.0215
3701.8030 0.0162
3701.8040 0.0199
3701.8050 0.0147
3701.8060 0.0322
3701.8070 0.0199
3701.8080 0.0249
3701.8090 0.0260
3701.8100 0.0157
3701.8110 0.0187
3701.8120 0.0253
3701.8130 0.0231
3701.8140 0.0205
3701.8150 0.0178
3701.8160 0.0162
3701.8170 0.0212
3701.8180 0.0152
3701.8190 0.0230
3701.8200 0.0160
3701.8210 0.0211
3701.8220 0.0179
3701.8230 0.0203
3701.8240 0.0178
3701.8250 0.0170
3701.8260 0.0145
3701.8270 0.0194
3701.8280 0.0171
3701.8290 0.0160
3701.8300 0.0165
3701.8310 0.0162
3701.8320 0.0245
3701.8330 0.0192
3701.8340 0.0201
3701.8350 0.0197
3701.8360 0.0188
3701.8370 0.0142
3701.8380 0.0160
3701.8390 0.0142
3701.8400 0.0170
3701.8410 0.0171
3701.8420 0.0204
3701.8430 0.0104
3701.8440 0.0183
3701.8450 0.0185
3701.8460 0.0146
3701.8470 0.0153
3701.8480 0.0172
3701.8490 0.0184
3701.8500 0.0134
3701.8510 0.0159
3701.8520 0.0194
3701.8530 0.0165
3701.8540 0.0139
3701.8550 0.0143
3701.8560 0.0129
3701.8570 0.0150
3701.8580 0.0175
3701.8590 0.0156
3701.8600 0.0275
3701.8610 0.0196
3701.8620 0.0162
3701.8630 0.0144
3701.8640 0.0165
3701.8650 0.0248
3701.8660 0.0256
3701.8670 0.0216
3701.8680 0.0191
3701.8690 0.0164
3701.8700 0.0230
3701.8710 0.0276
3701.8720 0.0246
3701.8730 0.0275
3701.8740 0.0257
3701.8750 0.0219
3701.8760 0.0239
3701.8770 0.0288
3701.8780 0.0271
3701.8790 0.0274
3701.8800 0.0283
3701.8810 0.0223
3701.8820 0.0176
3701.8830 0.0186
3701.8840 0.0150
3701.8850 0.0172
3701.8860 0.0230
3701.8870 0.0205
3701.8880 0.0165
3701.8890 0.0235
3701.8900 0.0210
3701.8910 0.0272
3701.8920 0.0218
3701.8930 0.0152
3701.8940 0.0255
3701.8950 0.0246
3701.8960 0.0427
3701.8970 0.0364
3701.8980 0.0251
3701.8990 0.0407
3701.9000 0.0467
3701.9010 0.0436
3701.9020 0.0362
3701.9030 0.0271
3701.9040 0.0272
3701.9050 0.0223
3701.9060 0.0290
3701.9070 0.0282
3701.9080 0.0197
3701.9090 0.0258
3701.9100 0.0278
3701.9110 0.0275
3701.9120 0.0183
3701.9130 0.0224
3701.9140 0.0155
3701.9150 0.0208
3701.9160 0.0206
3701.9170 0.0183
3701.9180 0.0202
3701.9190 0.0219
3701.9200 0.0185
3701.9210 0.0143
3701.9220 0.0178
3701.9230 0.0297
3701.9240 0.0292
3701.9250 0.0246
3701.9260 0.0251
3701.9270 0.0253
3701.9280 0.0251
3701.9290 0.0279
3701.9300 0.0354
3701.9310 0.0239
3701.9320 0.0469
3701.9330 0.0374
3701.9340 0.0438
3701.9350 0.0394
3701.9360 0.0367
3701.9370 0.0377
3701.9380 0.0385
3701.9390 0.0328
3701.9400 0.0418
3701.9410 0.0371
3701.9420 0.0424
3701.9430 0.0275
3701.9440 0.0370
3701.9450 0.0424
3701.9460 0.0351
3701.9470 0.0401
3701.9480 0.0460
3701.9490 0.0331
3701.9500 0.0341
3701.9510 0.0375
3701.9520 0.0299
3701.9530 0.0416
3701.9540 0.0360
3701.9550 0.0397
3701.9560 0.0337
3701.9570 0.0317
3701.9580 0.0343
3701.9590 0.0459
3701.9600 0.0344
3701.9610 0.0320
3701.9620 0.0277
3701.9630 0.0287
3701.9640 0.0293
3701.9650 0.0269
3701.9660 0.0228
3701.9670 0.0285
3701.9680 0.0199
3701.9690 0.0253
3701.9700 0.0250
3701.9710 0.0326
3701.9720 0.0224
3701.9730 0.0155
3701.9740 0.0309
3701.9750 0.0276
3701.9760 0.0246
3701.9770 0.0248
3701.9780 0.0270
3701.9790 0.0254
3701.9800 0.0214
3701.9810 0.0265
3701.9820 0.0262
3701.9830 0.0217
3701.9840 0.0257
3701.9850 0.0225
3701.9860 0.0252
3701.9870 0.0285
3701.9880 0.0284
3701.9890 0.0293
3701.9900 0.0390
3701.9910 0.0257
3701.9920 0.0359
3701.9930 0.0298
3701.9940 0.0266
3701.9950 0.0252
3701.9960 0.0259
3701.9970 0.0318
3701.9980 0.0275
3701.9990 0.0302
3702.0000 0.0236
3702.0010 0.0235
3702.0020 0.0289
3702.0030 0.0281
3702.0040 0.0265
3702.0050 0.0306
3702.0060 0.0275
3702.0070 0.0268
3702.0080 0.0370
3702.0090 0.0243
3702.0100 0.0335
3702.0110 0.0355
3702.0120 0.0275
3702.0130 0.0397
3702.0140 0.0408
3702.0150 0.0332
3702.0160 0.0328
3702.0170 0.0372
3702.0180 0.0369
3702.0190 0.0318
3702.0200 0.0414
3702.0210 0.0318
3702.0220 0.0261
3702.0230 0.0448
3702.0240 0.0368
3702.0250 0.0397
3702.0260 0.0411
3702.0270 0.0624
3702.0280 0.0424
3702.0290 0.0703
3702.0300 0.0494
3702.0310 0.0399
3702.0320 0.0436
3702.0330 0.0633
3702.0340 0.0434
3702.0350 0.0398
3702.0360 0.0371
3702.0370 0.0330
3702.0380 0.0300
3702.0390 0.0405
3702.0400 0.0319
3702.0410 0.0510
3702.0420 0.0352
3702.0430 0.0354
3702.0440 0.0386
3702.0450 0.0431
3702.0460 0.0543
3702.0470 0.0656
3702.0480 0.0586
3702.0490 0.0676
3702.0500 0.0779
3702.0510 0.0782
3702.0520 0.1376
3702.0530 0.1476
3702.0540 0.2766
3702.0550 0.2284
3702.0560 0.3581
3702.0570 0.5870
3702.0580 0.5541
3702.0590 0.6891
3702.0600 0.4473
3702.0610 0.3998
3702.0620 0.3932
3702.0630 0.3216
3702.0640 0.2795
3702.0650 0.2072
3702.0660 0.1360
3702.0670 0.1403
3702.0680 0.0968
3702.0690 0.0713
3702.0700 0.0785
3702.0710 0.0756
3702.0720 0.0568
3702.0730 0.0399
3702.0740 0.0601
3702.0750 0.0561
3702.0760 0.0562
3702.0770 0.0498
3702.0780 0.0385
3702.0790 0.0410
3702.0800 0.0338
3702.0810 0.0357
3702.0820 0.0322
3702.0830 0.0422
3702.0840 0.0305
3702.0850 0.0432
3702.0860 0.0470
3702.0870 0.0508
3702.0880 0.0323
3702.0890 0.0488
3702.0900 0.0536
3702.0910 0.0516
3702.0920 0.0349
3702.0930 0.0395
3702.0940 0.0386
3702.0950 0.0298
3702.0960 0.0259
3702.0970 0.0297
3702.0980 0.0437
3702.0990 0.0341
3702.1000 0.0336
3702.1010 0.0319
3702.1020 0.0344
3702.1030 0.0329
3702.1040 0.0321
3702.1050 0.0371
3702.1060 0.0390
3702.1070 0.0366
3702.1080 0.0438
3702.1090 0.0405
3702.1100 0.1969
3702.1110 0.1253
3702.1120 0.0543
3702.1130 0.0450
3702.1140 0.0329
3702.1150 0.0365
3702.1160 0.0377
3702.1170 0.0559
3702.1180 0.0748
3702.1190 0.0923
3702.1200 0.0590
3702.1210 0.0452
3702.1220 0.0374
3702.1230 0.0349
3702.1240 0.0429
3702.1250 0.0495
3702.1260 0.0494
3702.1270 0.0328
3702.1280 0.0375
3702.1290 0.0391
3702.1300 0.0405
3702.1310 0.0378
3702.1320 0.0462
3702.1330 0.0744
3702.1340 0.0942
3702.1350 0.1253
3702.1360 0.0755
3702.1370 0.0571
3702.1380 0.0380
3702.1390 0.0399
3702.1400 0.0529
3702.1410 0.0445
3702.1420 0.0486
3702.1430 0.0558
3702.1440 0.0475
3702.1450 0.0521
3702.1460 0.0438
3702.1470 0.0411
3702.1480 0.0550
3702.1490 0.0390
3702.1500 0.0502
3702.1510 0.2045
3702.1520 0.0485
3702.1530 0.0253
3702.1540 0.0216
3702.1550 0.0276
3702.1560 0.0343
3702.1570 0.0358
3702.1580 0.0353
3702.1590 0.0471
3702.1600 0.0363
3702.1610 0.0436
3702.1620 0.0350
3702.1630 0.0409
3702.1640 0.0692
3702.1650 0.0537
3702.1660 0.0357
3702.1670 0.0429
3702.1680 0.0479
3702.1690 0.0518
3702.1700 0.0527
3702.1710 0.0353
3702.1720 0.0366
3702.1730 0.0410
3702.1740 0.0517
3702.1750 0.0450
3702.1760 0.0603
3702.1770 0.0432
3702.1780 0.0305
3702.1790 0.0180
3702.1800 0.0306
3702.1810 0.0374
3702.1820 0.0221
3702.1830 0.0174
3702.1840 0.0270
3702.1850 0.0195
3702.1860 0.0334
3702.1870 0.0306
3702.1880 0.0284
3702.1890 0.0252
3702.1900 0.0231
3702.1910 0.0282
3702.1920 0.0265
3702.1930 0.0231
3702.1940 0.0238
3702.1950 0.0502
3702.1960 0.1070
3702.1970 0.1307
3702.1980 0.1280
3702.1990 0.1327
3702.2000 0.0983
3702.2010 0.0772
3702.2020 0.0525
3702.2030 0.0631
3702.2040 0.0699
3702.2050 0.0953
3702.2060 0.0693
3702.2070 0.1207
3702.2080 0.1092
3702.2090 0.1642
3702.2100 0.1068
3702.2110 0.1474
3702.2120 0.1928
3702.2130 0.2473
3702.2140 0.1910
3702.2150 0.2930
3702.2160 0.2336
3702.2170 0.1585
3702.2180 0.0987
3702.2190 0.0899
3702.2200 0.1058
3702.2210 0.0528
3702.2220 0.1012
3702.2230 0.0538
3702.2240 0.0519
3702.2250 0.0341
3702.2260 0.0334
3702.2270 0.0328
3702.2280 0.0289
3702.2290 0.0288
3702.2300 0.0488
3702.2310 0.0468
3702.2320 0.0332
3702.2330 0.0300
3702.2340 0.0265
3702.2350 0.0157
3702.2360 0.0235
3702.2370 0.0211
3702.2380 0.0195
3702.2390 0.0186
3702.2400 0.0166
3702.2410 0.0193
3702.2420 0.0186
3702.2430 0.0150
3702.2440 0.0108
3702.2450 0.0126
3702.2460 0.0153
3702.2470 0.0098
3702.2480 0.0174
3702.2490 0.0150
3702.2500 0.0140
3702.2510 0.0210
3702.2520 0.0140
3702.2530 0.0142
3702.2540 0.0074
3702.2550 0.0136
3702.2560 0.0123
3702.2570 0.0152
3702.2580 0.0142
3702.2590 0.0134
3702.2600 0.0178
3702.2610 0.0174
3702.2620 0.0140
3702.2630 0.0145
3702.2640 0.0240
3702.2650 0.0165
3702.2660 0.0173
3702.2670 0.0171
3702.2680 0.0195
3702.2690 0.0229
3702.2700 0.0371
3702.2710 0.0428
3702.2720 0.0399
3702.2730 0.0421
3702.2740 0.0676
3702.2750 0.0384
3702.2760 0.0157
3702.2770 0.0149
3702.2780 0.0152
3702.2790 0.0193
3702.2800 0.0150
3702.2810 0.0176
3702.2820 0.0092
3702.2830 0.0171
3702.2840 0.0136
3702.2850 0.0137
3702.2860 0.0132
3702.2870 0.0125
3702.2880 0.0136
3702.2890 0.0138
3702.2900 0.0174
3702.2910 0.0166
3702.2920 0.0120
3702.2930 0.0146
3702.2940 0.0157
3702.2950 0.0092
3702.2960 0.0170
3702.2970 0.0186
3702.2980 0.0154
3702.2990 0.0150
3702.3000 0.0140
3702.3010 0.0161
3702.3020 0.0158
3702.3030 0.0150
3702.3040 0.0135
3702.3050 0.0124
3702.3060 0.0149
3702.3070 0.0163
3702.3080 0.0152
3702.3090 0.0100
3702.3100 0.0128
3702.3110 0.0155
3702.3120 0.0106
3702.3130 0.0157
3702.3140 0.0123
3702.3150 0.0157
3702.3160 0.0187
3702.3170 0.0133
3702.3180 0.0108
3702.3190 0.0187
3702.3200 0.0157
3702.3210 0.0127
3702.3220 0.0172
3702.3230 0.0131
3702.3240 0.0123
3702.3250 0.0111
3702.3260 0.0151
3702.3270 0.0148
3702.3280 0.0161
3702.3290 0.0224
3702.3300 0.0143
3702.3310 0.0169
3702.3320 0.0188
3702.3330 0.0159
3702.3340 0.0196
3702.3350 0.0213
3702.3360 0.0221
3702.3370 0.0151
3702.3380 0.0254
3702.3390 0.0172
3702.3400 0.0242
3702.3410 0.0252
3702.3420 0.0328
3702.3430 0.0584
3702.3440 0.0475
3702.3450 0.0914
3702.3460 0.0422
3702.3470 0.0265
3702.3480 0.0338
3702.3490 0.0345
3702.3500 0.0372
3702.3510 0.0279
3702.3520 0.0292
3702.3530 0.0417
3702.3540 0.0229
3702.3550 0.0447
3702.3560 0.0458
3702.3570 0.0569
3702.3580 0.0864
3702.3590 0.0700
3702.3600 0.0813
3702.3610 0.1431
3702.3620 0.1365
3702.3630 0.1649
3702.3640 0.1686
3702.3650 0.1837
3702.3660 0.1439
3702.3670 0.1983
3702.3680 0.1701
3702.3690 0.1724
3702.3700 0.1702
3702.3710 0.1265
3702.3720 0.0911
3702.3730 0.1229
3702.3740 0.0939
3702.3750 0.1016
3702.3760 0.0833
3702.3770 0.1066
3702.3780 0.0980
3702.3790 0.0688
3702.3800 0.0519
3702.3810 0.0319
3702.3820 0.0363
3702.3830 0.0568
3702.3840 0.0400
3702.3850 0.0244
3702.3860 0.0298
3702.3870 0.0302
3702.3880 0.0335
3702.3890 0.0304
3702.3900 0.0307
3702.3910 0.0382
3702.3920 0.0435
3702.3930 0.0377
3702.3940 0.0212
3702.3950 0.0316
3702.3960 0.0306
3702.3970 0.0288
3702.3980 0.0361
3702.3990 0.0192
3702.4000 0.0125
3702.4010 0.0181
3702.4020 0.0142
3702.4030 0.0123
3702.4040 0.0164
3702.4050 0.0139
3702.4060 0.0140
3702.4070 0.0133
3702.4080 0.0144
3702.4090 0.0135
3702.4100 0.0145
3702.4110 0.0116
3702.4120 0.0145
3702.4130 0.0143
3702.4140 0.0115
3702.4150 0.0166
3702.4160 0.0145
3702.4170 0.0137
3702.4180 0.0148
3702.4190 0.0267
3702.4200 0.0231
3702.4210 0.0328
3702.4220 0.0353
3702.4230 0.0431
3702.4240 0.0242
3702.4250 0.0142
3702.4260 0.0179
3702.4270 0.0139
3702.4280 0.0124
3702.4290 0.0125
3702.4300 0.0133
3702.4310 0.0130
3702.4320 0.0104
3702.4330 0.0124
3702.4340 0.0141
3702.4350 0.0139
3702.4360 0.0125
3702.4370 0.0137
3702.4380 0.0139
3702.4390 0.0152
3702.4400 0.0111
3702.4410 0.0141
3702.4420 0.0126
3702.4430 0.0114
3702.4440 0.0130
3702.4450 0.0122
3702.4460 0.0147
3702.4470 0.0120
3702.4480 0.0135
3702.4490 0.0124
3702.4500 0.0110
3702.4510 0.0129
3702.4520 0.0120
3702.4530 0.0136
3702.4540 0.0110
3702.4550 0.0101
3702.4560 0.0116
3702.4570 0.0149
3702.4580 0.0178
3702.4590 0.0188
3702.4600 0.0249
3702.4610 0.0225
3702.4620 0.0144
3702.4630 0.0185
3702.4640 0.0120
3702.4650 0.0143
3702.4660 0.0114
3702.4670 0.0135
3702.4680 0.0122
3702.4690 0.0108
3702.4700 0.0100
3702.4710 0.0107
3702.4720 0.0104
3702.4730 0.0134
3702.4740 0.0125
3702.4750 0.0122
3702.4760 0.0106
3702.4770 0.0114
3702.4780 0.0143
3702.4790 0.0141
3702.4800 0.0125
3702.4810 0.0112
3702.4820 0.0146
3702.4830 0.0118
3702.4840 0.0123
3702.4850 0.0117
3702.4860 0.0116
3702.4870 0.0115
3702.4880 0.0099
3702.4890 0.0122
3702.4900 0.0144
3702.4910 0.0124
3702.4920 0.0136
3702.4930 0.0101
3702.4940 0.0135
3702.4950 0.0142
3702.4960 0.0140
3702.4970 0.0101
3702.4980 0.0138
3702.4990 0.0112
3702.5000 0.0145
3702.5010 0.0167
3702.5020 0.0218
3702.5030 0.0339
3702.5040 0.0405
3702.5050 0.0327
3702.5060 0.0457
3702.5070 0.0269
3702.5080 0.0222
3702.5090 0.0159
3702.5100 0.0184
3702.5110 0.0166
3702.5120 0.0288
3702.5130 0.0197
3702.5140 0.0234
3702.5150 0.0226
3702.5160 0.0357
3702.5170 0.0493
3702.5180 0.0535
3702.5190 0.0848
3702.5200 0.0838
3702.5210 0.0719
3702.5220 0.1747
3702.5230 0.1351
3702.5240 0.1924
3702.5250 0.1280
3702.5260 0.2273
3702.5270 0.1431
3702.5280 0.1357
3702.5290 0.0682
3702.5300 0.0721
3702.5310 0.0775
3702.5320 0.0590
3702.5330 0.0392
3702.5340 0.0299
3702.5350 0.0290
3702.5360 0.0389
3702.5370 0.0261
3702.5380 0.0385
3702.5390 0.0201
3702.5400 0.0176
3702.5410 0.0173
3702.5420 0.0109
3702.5430 0.0189
3702.5440 0.0110
3702.5450 0.0141
3702.5460 0.0201
3702.5470 0.0187
3702.5480 0.0205
3702.5490 0.0267
3702.5500 0.0355
3702.5510 0.0365
3702.5520 0.0256
3702.5530 0.0316
3702.5540 0.0401
3702.5550 0.0755
3702.5560 0.1034
3702.5570 0.1171
3702.5580 0.1477
3702.5590 0.0868
3702.5600 0.0401
3702.5610 0.0103
3702.5620 0.0131
3702.5630 0.0104
3702.5640 0.0126
3702.5650 0.0113
3702.5660 0.0131
3702.5670 0.0154
3702.5680 0.0134
3702.5690 0.0100
3702.5700 0.0149
3702.5710 0.0129
3702.5720 0.0109
3702.5730 0.0103
3702.5740 0.0146
3702.5750 0.0119
3702.5760 0.0111
3702.5770 0.0117
3702.5780 0.0104
3702.5790 0.0111
3702.5800 0.0112
3702.5810 0.0121
3702.5820 0.0112
3702.5830 0.0126
3702.5840 0.0114
3702.5850 0.0107
3702.5860 0.0100
3702.5870 0.0113
3702.5880 0.0132
3702.5890 0.0099
3702.5900 0.0088
3702.5910 0.0148
3702.5920 0.0164
3702.5930 0.0332
3702.5940 0.0659
3702.5950 0.0627
3702.5960 0.0395
3702.5970 0.0210
3702.5980 0.0167
3702.5990 0.0119
3702.6000 0.0152
3702.6010 0.0120
3702.6020 0.0108
3702.6030 0.0116
3702.6040 0.0112
3702.6050 0.0145
3702.6060 0.0118
3702.6070 0.0113
3702.6080 0.0135
3702.6090 0.0126
3702.6100 0.0130
3702.6110 0.0115
3702.6120 0.0129
3702.6130 0.0129
3702.6140 0.0116
3702.6150 0.0104
3702.6160 0.0131
3702.6170 0.0139
3702.6180 0.0122
3702.6190 0.0132
3702.6200 0.0110
3702.6210 0.0148
3702.6220 0.0126
3702.6230 0.0112
3702.6240 0.0123
3702.6250 0.0122
3702.6260 0.0119
3702.6270 0.0125
3702.6280 0.0137
3702.6290 0.0112
3702.6300 0.0139
3702.6310 0.0144
3702.6320 0.0126
3702.6330 0.0140
3702.6340 0.0149
3702.6350 0.0117
3702.6360 0.0112
3702.6370 0.0125
3702.6380 0.0123
3702.6390 0.0136
3702.6400 0.0135
3702.6410 0.0116
3702.6420 0.0136
3702.6430 0.0158
3702.6440 0.0128
3702.6450 0.0126
3702.6460 0.0128
3702.6470 0.0139
3702.6480 0.0119
3702.6490 0.0129
3702.6500 0.0130
3702.6510 0.0172
3702.6520 0.0172
3702.6530 0.0151
3702.6540 0.0149
3702.6550 0.0163
3702.6560 0.0208
3702.6570 0.0219
3702.6580 0.0239
3702.6590 0.0200
3702.6600 0.0238
3702.6610 0.0237
3702.6620 0.0349
3702.6630 0.0212
3702.6640 0.0223
3702.6650 0.0167
3702.6660 0.0251
3702.6670 0.0228
3702.6680 0.0195
3702.6690 0.0222
3702.6700 0.0260
3702.6710 0.0255
3702.6720 0.0210
3702.6730 0.0250
3702.6740 0.0340
3702.6750 0.0336
3702.6760 0.0247
3702.6770 0.0468
3702.6780 0.0330
3702.6790 0.0429
3702.6800 0.0361
3702.6810 0.0857
3702.6820 0.0980
3702.6830 0.1741
3702.6840 0.1314
3702.6850 0.1412
3702.6860 0.0872
3702.6870 0.1028
3702.6880 0.1198
3702.6890 0.0828
3702.6900 0.1444
3702.6910 0.0972
3702.6920 0.0782
3702.6930 0.0823
3702.6940 0.0633
3702.6950 0.0453
3702.6960 0.0367
3702.6970 0.0437
3702.6980 0.0436
3702.6990 0.0339
3702.7000 0.0328
3702.7010 0.0174
3702.7020 0.0205
3702.7030 0.0184
3702.7040 0.0216
3702.7050 0.0206
3702.7060 0.0181
3702.7070 0.0175
3702.7080 0.0134
3702.7090 0.0176
3702.7100 0.0196
3702.7110 0.0125
3702.7120 0.0151
3702.7130 0.0142
3702.7140 0.0141
3702.7150 0.0125
3702.7160 0.0144
3702.7170 0.0194
3702.7180 0.0157
3702.7190 0.0131
3702.7200 0.0131
3702.7210 0.0127
3702.7220 0.0111
3702.7230 0.0139
3702.7240 0.0123
3702.7250 0.0144
3702.7260 0.0135
3702.7270 0.0126
3702.7280 0.0131
3702.7290 0.0119
3702.7300 0.0127
3702.7310 0.0110
3702.7320 0.0147
3702.7330 0.0109
3702.7340 0.0108
3702.7350 0.0141
3702.7360 0.0185
3702.7370 0.0168
3702.7380 0.0254
3702.7390 0.0623
3702.7400 0.0716
3702.7410 0.0487
3702.7420 0.0299
3702.7430 0.0142
3702.7440 0.0130
3702.7450 0.0117
3702.7460 0.0129
3702.7470 0.0121
3702.7480 0.0149
3702.7490 0.0131
3702.7500 0.0103
3702.7510 0.0129
3702.7520 0.0124
3702.7530 0.0123
3702.7540 0.0122
3702.7550 0.0136
3702.7560 0.0136
3702.7570 0.0118
3702.7580 0.0124
3702.7590 0.0154
3702.7600 0.0293
3702.7610 0.0213
3702.7620 0.0408
3702.7630 0.0324
3702.7640 0.0321
3702.7650 0.0181
3702.7660 0.0108
3702.7670 0.0104
3702.7680 0.0106
3702.7690 0.0126
3702.7700 0.0073
3702.7710 0.0120
3702.7720 0.0141
3702.7730 0.0149
3702.7740 0.0121
3702.7750 0.0131
3702.7760 0.0120
3702.7770 0.0196
3702.7780 0.0207
3702.7790 0.0286
3702.7800 0.0386
3702.7810 0.0373
3702.7820 0.0608
3702.7830 0.0382
3702.7840 0.0344
3702.7850 0.0493
3702.7860 0.0140
3702.7870 0.0124
3702.7880 0.0122
3702.7890 0.0123
3702.7900 0.0106
3702.7910 0.0117
3702.7920 0.0145
3702.7930 0.0087
3702.7940 0.0143
3702.7950 0.0120
3702.7960 0.0149
3702.7970 0.0109
3702.7980 0.0129
3702.7990 0.0112
3702.8000 0.0153
3702.8010 0.0150
3702.8020 0.0124
3702.8030 0.0106
3702.8040 0.0108
3702.8050 0.0139
3702.8060 0.0101
3702.8070 0.0109
3702.8080 0.0122
3702.8090 0.0134
3702.8100 0.0124
3702.8110 0.0151
3702.8120 0.0116
3702.8130 0.0099
3702.8140 0.0120
3702.8150 0.0124
3702.8160 0.0111
3702.8170 0.0152
3702.8180 0.0132
3702.8190 0.0146
3702.8200 0.0133
3702.8210 0.0122
3702.8220 0.0111
3702.8230 0.0130
3702.8240 0.0138
3702.8250 0.0140
3702.8260 0.0152
3702.8270 0.0164
3702.8280 0.0146
3702.8290 0.0188
3702.8300 0.0163
3702.8310 0.0168
3702.8320 0.0163
3702.8330 0.0189
3702.8340 0.0222
3702.8350 0.0224
3702.8360 0.0224
3702.8370 0.0200
3702.8380 0.0342
3702.8390 0.0319
3702.8400 0.0580
3702.8410 0.0638
3702.8420 0.0522
3702.8430 0.0682
3702.8440 0.0969
3702.8450 0.0678
3702.8460 0.1015
3702.8470 0.1280
3702.8480 0.1684
3702.8490 0.2146
3702.8500 0.1153
3702.8510 0.1033
3702.8520 0.0687
3702.8530 0.0761
3702.8540 0.0821
3702.8550 0.0318
3702.8560 0.0415
3702.8570 0.0300
3702.8580 0.0349
3702.8590 0.0359
3702.8600 0.0310
3702.8610 0.0191
3702.8620 0.0160
3702.8630 0.0177
3702.8640 0.0165
3702.8650 0.0152
3702.8660 0.0147
3702.8670 0.0163
3702.8680 0.0185
3702.8690 0.0163
3702.8700 0.0364
3702.8710 0.0502
3702.8720 0.0392
3702.8730 0.0420
3702.8740 0.0309
3702.8750 0.0167
3702.8760 0.0124
3702.8770 0.0129
3702.8780 0.0134
3702.8790 0.0140
3702.8800 0.0157
3702.8810 0.0280
3702.8820 0.0313
3702.8830 0.0621
3702.8840 0.0563
3702.8850 0.0618
3702.8860 0.0377
3702.8870 0.0384
3702.8880 0.0222
3702.8890 0.0151
3702.8900 0.0114
3702.8910 0.0139
3702.8920 0.0103
3702.8930 0.0107
3702.8940 0.0137
3702.8950 0.0128
3702.8960 0.0141
3702.8970 0.0117
3702.8980 0.0128
3702.8990 0.0125
3702.9000 0.0147
3702.9010 0.0118
3702.9020 0.0093
3702.9030 0.0106
3702.9040 0.0126
3702.9050 0.0135
3702.9060 0.0136
3702.9070 0.0108
3702.9080 0.0109
3702.9090 0.0143
3702.9100 0.0122
3702.9110 0.0113
3702.9120 0.0116
3702.9130 0.0095
3702.9140 0.0093
3702.9150 0.0109
3702.9160 0.0119
3702.9170 0.0111
3702.9180 0.0120
3702.9190 0.0107
3702.9200 0.0135
3702.9210 0.0116
3702.9220 0.0102
3702.9230 0.0113
3702.9240 0.0135
3702.9250 0.0153
3702.9260 0.0128
3702.9270 0.0161
3702.9280 0.0321
3702.9290 0.0293
3702.9300 0.0141
3702.9310 0.0391
3702.9320 0.0505
3702.9330 0.0460
3702.9340 0.0462
3702.9350 0.0407
3702.9360 0.0212
3702.9370 0.0134
3702.9380 0.0140
3702.9390 0.0112
3702.9400 0.0133
3702.9410 0.0121
3702.9420 0.0114
3702.9430 0.0115
3702.9440 0.0113
3702.9450 0.0139
3702.9460 0.0114
3702.9470 0.0087
3702.9480 0.0141
3702.9490 0.0102
3702.9500 0.0112
3702.9510 0.0111
3702.9520 0.0138
3702.9530 0.0133
3702.9540 0.0122
3702.9550 0.0121
3702.9560 0.0111
3702.9570 0.0148
3702.9580 0.0104
3702.9590 0.0113
3702.9600 0.0118
3702.9610 0.0139
3702.9620 0.0137
3702.9630 0.0126
3702.9640 0.0096
3702.9650 0.0093
3702.9660 0.0110
3702.9670 0.0118
3702.9680 0.0116
3702.9690 0.0144
3702.9700 0.0146
3702.9710 0.0116
3702.9720 0.0120
3702.9730 0.0100
3702.9740 0.0130
3702.9750 0.0105
3702.9760 0.0108
3702.9770 0.0171
3702.9780 0.0132
3702.9790 0.0138
3702.9800 0.0138
3702.9810 0.0143
3702.9820 0.0114
3702.9830 0.0149
3702.9840 0.0147
3702.9850 0.0205
3702.9860 0.0304
3702.9870 0.0318
3702.9880 0.0404
3702.9890 0.0276
3702.9900 0.0387
3702.9910 0.0497
3702.9920 0.0272
3702.9930 0.0218
3702.9940 0.0396
3702.9950 0.0463
3702.9960 0.0731
3702.9970 0.0421
3702.9980 0.0806
3702.9990 0.0376
3703.0000 0.0303
3703.0010 0.0183
3703.0020 0.0217
3703.0030 0.0216
3703.0040 0.0304
3703.0050 0.0232
3703.0060 0.0196
3703.0070 0.0223
3703.0080 0.0254
3703.0090 0.0332
3703.0100 0.0363
3703.0110 0.0392
3703.0120 0.0467
3703.0130 0.0511
3703.0140 0.1475
3703.0150 0.3868
3703.0160 0.9521
3703.0170 0.6459
3703.0180 0.1871
3703.0190 0.1011
3703.0200 0.0666
3703.0210 0.0512
3703.0220 0.0301
3703.0230 0.0539
3703.0240 0.0643
3703.0250 0.0393
3703.0260 0.0471
3703.0270 0.1098
3703.0280 0.0381
3703.0290 0.0337
3703.0300 0.0257
3703.0310 0.0225
3703.0320 0.0242
3703.0330 0.0201
3703.0340 0.0187
3703.0350 0.0208
3703.0360 0.0239
3703.0370 0.0277
3703.0380 0.0172
3703.0390 0.0123
3703.0400 0.0144
3703.0410 0.0117
3703.0420 0.0163
3703.0430 0.0153
3703.0440 0.0136
3703.0450 0.0144
3703.0460 0.0173
3703.0470 0.0168
3703.0480 0.0127
3703.0490 0.0142
3703.0500 0.0137
3703.0510 0.0104
3703.0520 0.0188
3703.0530 0.0121
3703.0540 0.0094
3703.0550 0.0118
3703.0560 0.0117
3703.0570 0.0104
3703.0580 0.0109
3703.0590 0.0109
3703.0600 0.0126
3703.0610 0.0106
3703.0620 0.0100
3703.0630 0.0139
3703.0640 0.0092
3703.0650 0.0106
3703.0660 0.0129
3703.0670 0.0109
3703.0680 0.0139
3703.0690 0.0163
3703.0700 0.0091
3703.0710 0.0106
3703.0720 0.0089
3703.0730 0.0094
3703.0740 0.0133
3703.0750 0.0112
3703.0760 0.0095
3703.0770 0.0125
3703.0780 0.0090
3703.0790 0.0091
3703.0800 0.0103
3703.0810 0.0123
3703.0820 0.0098
3703.0830 0.0110
3703.0840 0.0082
3703.0850 0.0120
3703.0860 0.0095
3703.0870 0.0095
3703.0880 0.0093
3703.0890 0.0076
3703.0900 0.0070
3703.0910 0.0098
3703.0920 0.0063
3703.0930 0.0096
3703.0940 0.0069
3703.0950 0.0099
3703.0960 0.0084
3703.0970 0.0093
3703.0980 0.0100
3703.0990 0.0094
3703.1000 0.0294
3703.1010 0.0845
3703.1020 0.0466
3703.1030 0.0513
3703.1040 0.0739
3703.1050 0.0796
3703.1060 0.1123
3703.1070 0.0618
3703.1080 0.0788
3703.1090 0.0290
3703.1100 0.0182
3703.1110 0.0122
3703.1120 0.0102
3703.1130 0.0060
3703.1140 0.0094
3703.1150 0.0101
3703.1160 0.0109
3703.1170 0.0360
3703.1180 0.0481
3703.1190 0.0581
3703.1200 0.0468
3703.1210 0.0577
3703.1220 0.0444
3703.1230 0.0167
3703.1240 0.0206
3703.1250 0.0143
3703.1260 0.0117
3703.1270 0.0100
3703.1280 0.0041
3703.1290 0.0087
3703.1300 0.0092
3703.1310 0.0079
3703.1320 0.0075
3703.1330 0.0093
3703.1340 0.0110
3703.1350 0.0107
3703.1360 0.0122
3703.1370 0.0192
3703.1380 0.0408
3703.1390 0.0428
3703.1400 0.0253
3703.1410 0.0253
3703.1420 0.0117
3703.1430 0.0188
3703.1440 0.0151
3703.1450 0.0156
3703.1460 0.0106
3703.1470 0.0108
3703.1480 0.0111
3703.1490 0.0089
3703.1500 0.0056
3703.1510 0.0091
3703.1520 0.0060
3703.1530 0.0118
3703.1540 0.0113
3703.1550 0.0115
3703.1560 0.0121
3703.1570 0.0113
3703.1580 0.0106
3703.1590 0.0127
3703.1600 0.0139
3703.1610 0.0089
3703.1620 0.0152
3703.1630 0.0126
3703.1640 0.0126
3703.1650 0.0126
3703.1660 0.0148
3703.1670 0.0127
3703.1680 0.0139
3703.1690 0.0160
3703.1700 0.0159
3703.1710 0.0168
3703.1720 0.0165
3703.1730 0.0171
3703.1740 0.0151
3703.1750 0.0179
3703.1760 0.0279
3703.1770 0.0178
3703.1780 0.0291
3703.1790 0.0335
3703.1800 0.0329
3703.1810 0.0257
3703.1820 0.0332
3703.1830 0.0355
3703.1840 0.0301
3703.1850 0.0571
3703.1860 0.0517
3703.1870 0.0438
3703.1880 0.0853
3703.1890 0.0495
3703.1900 0.0433
3703.1910 0.0456
3703.1920 0.0275
3703.1930 0.0364
3703.1940 0.0329
3703.1950 0.0251
3703.1960 0.0189
3703.1970 0.0120
3703.1980 0.0187
3703.1990 0.0166
3703.2000 0.0217
3703.2010 0.0171
3703.2020 0.0159
3703.2030 0.0129
3703.2040 0.0134
3703.2050 0.0128
3703.2060 0.0140
3703.2070 0.0132
3703.2080 0.0138
3703.2090 0.0107
3703.2100 0.0131
3703.2110 0.0085
3703.2120 0.0094
3703.2130 0.0115
3703.2140 0.0078
3703.2150 0.0098
3703.2160 0.0131
3703.2170 0.0091
3703.2180 0.0090
3703.2190 0.0074
3703.2200 0.0161
3703.2210 0.0141
3703.2220 0.0635
3703.2230 0.0606
3703.2240 0.0783
3703.2250 0.1313
3703.2260 0.1103
3703.2270 0.0665
3703.2280 0.0415
3703.2290 0.0205
3703.2300 0.0125
3703.2310 0.0137
3703.2320 0.0103
3703.2330 0.0105
3703.2340 0.0115
3703.2350 0.0087
3703.2360 0.0102
3703.2370 0.0095
3703.2380 0.0101
3703.2390 0.0105
3703.2400 0.0083
3703.2410 0.0118
3703.2420 0.0105
3703.2430 0.0112
3703.2440 0.0117
3703.2450 0.0099
3703.2460 0.0102
3703.2470 0.0090
3703.2480 0.0132
3703.2490 0.0115
3703.2500 0.0110
3703.2510 0.0121
3703.2520 0.0116
3703.2530 0.0131
3703.2540 0.0100
3703.2550 0.0101
3703.2560 0.0131
3703.2570 0.0127
3703.2580 0.0157
3703.2590 0.0174
3703.2600 0.0136
3703.2610 0.0187
3703.2620 0.0166
3703.2630 0.0190
3703.2640 0.0146
3703.2650 0.0145
3703.2660 0.0113
3703.2670 0.0133
3703.2680 0.0109
3703.2690 0.0108
3703.2700 0.0125
3703.2710 0.0118
3703.2720 0.0088
3703.2730 0.0129
3703.2740 0.0136
3703.2750 0.0144
3703.2760 0.0160
3703.2770 0.0109
3703.2780 0.0110
3703.2790 0.0139
3703.2800 0.0153
3703.2810 0.0194
3703.2820 0.0149
3703.2830 0.0141
3703.2840 0.0145
3703.2850 0.0147
3703.2860 0.0136
3703.2870 0.0119
3703.2880 0.0169
3703.2890 0.0143
3703.2900 0.0151
3703.2910 0.0108
3703.2920 0.0220
3703.2930 0.0138
3703.2940 0.0138
3703.2950 0.0130
3703.2960 0.0154
3703.2970 0.0161
3703.2980 0.0182
3703.2990 0.0159
3703.3000 0.0183
3703.3010 0.0148
3703.3020 0.0185
3703.3030 0.0152
3703.3040 0.0147
3703.3050 0.0173
3703.3060 0.0164
3703.3070 0.0149
3703.3080 0.0137
3703.3090 0.0190
3703.3100 0.0154
3703.3110 0.0152
3703.3120 0.0389
3703.3130 0.0432
3703.3140 0.0551
3703.3150 0.0575
3703.3160 0.0403
3703.3170 0.0340
3703.3180 0.0221
3703.3190 0.0469
3703.3200 0.0317
3703.3210 0.0399
3703.3220 0.0225
3703.3230 0.0296
3703.3240 0.0151
3703.3250 0.0166
3703.3260 0.0139
3703.3270 0.0156
3703.3280 0.0183
3703.3290 0.0205
3703.3300 0.0207
3703.3310 0.0213
3703.3320 0.0208
3703.3330 0.0216
3703.3340 0.0177
3703.3350 0.0199
3703.3360 0.0181
3703.3370 0.0188
3703.3380 0.0315
3703.3390 0.0224
3703.3400 0.0206
3703.3410 0.0229
3703.3420 0.0206
3703.3430 0.0280
3703.3440 0.0298
3703.3450 0.0658
3703.3460 0.0638
3703.3470 0.0535
3703.3480 0.0405
3703.3490 0.1152
3703.3500 0.1578
3703.3510 0.2200
3703.3520 0.2687
3703.3530 0.2219
3703.3540 0.1490
3703.3550 0.0984
3703.3560 0.0500
3703.3570 0.0936
3703.3580 0.0569
3703.3590 0.0353
3703.3600 0.0405
3703.3610 0.0378
3703.3620 0.0304
3703.3630 0.0213
3703.3640 0.0318
3703.3650 0.0346
3703.3660 0.0279
3703.3670 0.0397
3703.3680 0.0363
3703.3690 0.0273
3703.3700 0.0334
3703.3710 0.0281
3703.3720 0.0274
3703.3730 0.0280
3703.3740 0.0240
3703.3750 0.0195
3703.3760 0.0248
3703.3770 0.0261
3703.3780 0.0209
3703.3790 0.0267
3703.3800 0.0224
3703.3810 0.0224
3703.3820 0.0265
3703.3830 0.0297
3703.3840 0.0209
3703.3850 0.0238
3703.3860 0.0275
3703.3870 0.0224
3703.3880 0.0197
3703.3890 0.0222
3703.3900 0.0164
3703.3910 0.0208
3703.3920 0.0212
3703.3930 0.0197
3703.3940 0.0164
3703.3950 0.0216
3703.3960 0.0188
3703.3970 0.0175
3703.3980 0.0185
3703.3990 0.0169
3703.4000 0.0178
3703.4010 0.0197
3703.4020 0.0176
3703.4030 0.0212
3703.4040 0.0140
3703.4050 0.0165
3703.4060 0.0216
3703.4070 0.0144
3703.4080 0.0183
3703.4090 0.0185
3703.4100 0.0185
3703.4110 0.0170
3703.4120 0.0159
3703.4130 0.0151
3703.4140 0.0174
3703.4150 0.0159
3703.4160 0.0210
3703.4170 0.0204
3703.4180 0.0169
3703.4190 0.0145
3703.4200 0.0154
3703.4210 0.0156
3703.4220 0.0159
3703.4230 0.0154
3703.4240 0.0187
3703.4250 0.0196
3703.4260 0.0154
3703.4270 0.0180
3703.4280 0.0178
3703.4290 0.0162
3703.4300 0.0166
3703.4310 0.0154
3703.4320 0.0144
3703.4330 0.0173
3703.4340 0.0239
3703.4350 0.0351
3703.4360 0.0476
3703.4370 0.0495
3703.4380 0.0353
3703.4390 0.0308
3703.4400 0.0163
3703.4410 0.0197
3703.4420 0.0330
3703.4430 0.0351
3703.4440 0.0204
3703.4450 0.0238
3703.4460 0.0206
3703.4470 0.0168
3703.4480 0.0195
3703.4490 0.0179
3703.4500 0.0185
3703.4510 0.0193
3703.4520 0.0179
3703.4530 0.0235
3703.4540 0.0185
3703.4550 0.0234
3703.4560 0.0296
3703.4570 0.0244
3703.4580 0.0371
3703.4590 0.0335
3703.4600 0.0192
3703.4610 0.0145
3703.4620 0.0153
3703.4630 0.0205
3703.4640 0.0170
3703.4650 0.0164
3703.4660 0.0214
3703.4670 0.0176
3703.4680 0.0187
3703.4690 0.0160
3703.4700 0.0215
3703.4710 0.0165
3703.4720 0.0164
3703.4730 0.0202
3703.4740 0.0609
3703.4750 0.0547
3703.4760 0.0416
3703.4770 0.0420
3703.4780 0.0244
3703.4790 0.0175
3703.4800 0.0215
3703.4810 0.0246
3703.4820 0.0349
3703.4830 0.0773
3703.4840 0.0593
3703.4850 0.0376
3703.4860 0.0263
3703.4870 0.0267
3703.4880 0.0221
3703.4890 0.0289
3703.4900 0.0295
3703.4910 0.0293
3703.4920 0.0212
3703.4930 0.0299
3703.4940 0.0311
3703.4950 0.0247
3703.4960 0.0288
3703.4970 0.0241
3703.4980 0.0412
3703.4990 0.0344
3703.5000 0.0446
3703.5010 0.0325
3703.5020 0.0424
3703.5030 0.0347
3703.5040 0.0335
3703.5050 0.0741
3703.5060 0.0268
3703.5070 0.0689
3703.5080 0.0578
3703.5090 0.0558
3703.5100 0.0608
3703.5110 0.0725
3703.5120 0.1493
3703.5130 0.1019
3703.5140 0.0800
3703.5150 0.1453
3703.5160 0.1160
3703.5170 0.1227
3703.5180 0.2180
3703.5190 0.1671
3703.5200 0.3031
3703.5210 0.1982
3703.5220 0.1656
3703.5230 0.3850
3703.5240 0.1710
3703.5250 0.3779
3703.5260 0.4012
3703.5270 0.1901
3703.5280 0.2090
3703.5290 0.2412
3703.5300 0.2500
3703.5310 0.2146
3703.5320 0.4725
3703.5330 0.1407
3703.5340 0.2591
3703.5350 0.2735
3703.5360 0.2084
3703.5370 0.2722
3703.5380 0.2025
3703.5390 0.1647
3703.5400 0.1482
3703.5410 0.1678
3703.5420 0.1290
3703.5430 0.1342
3703.5440 0.1397
3703.5450 0.2504
3703.5460 0.1926
3703.5470 0.2367
3703.5480 0.3682
3703.5490 0.5157
3703.5500 0.3023
3703.5510 0.3083
3703.5520 0.2663
3703.5530 0.1846
3703.5540 0.1194
3703.5550 0.1722
3703.5560 0.0861
3703.5570 0.1530
3703.5580 0.1598
3703.5590 0.1505
3703.5600 0.3677
3703.5610 0.3998
3703.5620 0.2340
3703.5630 0.4621
3703.5640 0.3370
3703.5650 0.2962
3703.5660 0.1486
3703.5670 0.1977
3703.5680 0.1303
3703.5690 0.1139
3703.5700 0.1068
3703.5710 0.0966
3703.5720 0.0786
3703.5730 0.0882
3703.5740 0.0709
3703.5750 0.1249
3703.5760 0.1038
3703.5770 0.1085
3703.5780 0.0564
3703.5790 0.1540
3703.5800 0.1591
3703.5810 0.2092
3703.5820 0.2042
3703.5830 0.3196
3703.5840 0.3919
3703.5850 0.1965
3703.5860 0.4333
3703.5870 0.3292
3703.5880 0.2062
3703.5890 0.2228
3703.5900 0.1527
3703.5910 0.0878
3703.5920 0.0777
3703.5930 0.1236
3703.5940 0.0716
3703.5950 0.0879
3703.5960 0.1026
3703.5970 0.1332
3703.5980 0.1535
3703.5990 0.2154
3703.6000 0.1573
3703.6010 0.3108
3703.6020 0.2062
3703.6030 0.4737
3703.6040 0.2107
3703.6050 0.3368
3703.6060 0.2201
3703.6070 0.1934
3703.6080 0.1579
3703.6090 0.1006
3703.6100 0.0838
3703.6110 0.0953
3703.6120 0.1064
3703.6130 0.1554
3703.6140 0.0544
3703.6150 0.1078
3703.6160 0.0588
3703.6170 0.0620
3703.6180 0.1251
3703.6190 0.1189
3703.6200 0.1403
3703.6210 0.1521
3703.6220 0.0908
3703.6230 0.1178
3703.6240 0.1168
3703.6250 0.0659
3703.6260 0.1405
3703.6270 0.0900
3703.6280 0.1062
3703.6290 0.1249
3703.6300 0.0522
3703.6310 0.0865
3703.6320 0.0683
3703.6330 0.0825
3703.6340 0.0610
3703.6350 0.0975
3703.6360 0.0405
3703.6370 0.0833
3703.6380 0.1034
3703.6390 0.0765
3703.6400 0.0463
3703.6410 0.0711
3703.6420 0.0743
3703.6430 0.0450
3703.6440 0.0532
3703.6450 0.0507
3703.6460 0.0706
3703.6470 0.0537
3703.6480 0.0738
3703.6490 0.0829
3703.6500 0.0491
3703.6510 0.0656
3703.6520 0.0787
3703.6530 0.0684
3703.6540 0.0741
3703.6550 0.0805
3703.6560 0.0388
3703.6570 0.0597
3703.6580 0.1000
3703.6590 0.0835
3703.6600 0.0645
3703.6610 0.1106
3703.6620 0.0916
3703.6630 0.1408
3703.6640 0.0754
3703.6650 0.0988
3703.6660 0.2527
3703.6670 0.1627
3703.6680 0.3042
3703.6690 0.2637
3703.6700 0.4904
3703.6710 0.1502
3703.6720 0.2211
3703.6730 0.1546
3703.6740 0.1526
3703.6750 0.0690
3703.6760 0.1466
3703.6770 0.1389
3703.6780 0.1463
3703.6790 0.1229
3703.6800 0.1136
3703.6810 0.0613
3703.6820 0.1764
3703.6830 0.2286
3703.6840 0.1682
3703.6850 0.1304
3703.6860 0.1716
3703.6870 0.2283
3703.6880 0.1654
3703.6890 0.1866
3703.6900 0.1564
3703.6910 0.1378
3703.6920 0.1173
3703.6930 0.1106
3703.6940 0.1517
3703.6950 0.0619
3703.6960 0.1290
3703.6970 0.1360
3703.6980 0.0659
3703.6990 0.0994
3703.7000 0.1144
3703.7010 0.0652
3703.7020 0.0673
3703.7030 0.0457
3703.7040 0.0600
3703.7050 0.0676
3703.7060 0.0676
3703.7070 0.0746
3703.7080 0.0389
3703.7090 0.0892
3703.7100 0.0593
3703.7110 0.1222
3703.7120 0.0738
3703.7130 0.0847
3703.7140 0.0745
3703.7150 0.0355
3703.7160 0.0507
3703.7170 0.0466
3703.7180 0.1236
3703.7190 0.1061
3703.7200 0.0765
3703.7210 0.1094
3703.7220 0.0805
3703.7230 0.0923
3703.7240 0.1063
3703.7250 0.1261
3703.7260 0.0998
3703.7270 0.1054
3703.7280 0.0923
3703.7290 0.1747
3703.7300 0.0979
3703.7310 0.2554
3703.7320 0.1859
3703.7330 0.1472
3703.7340 0.1335
3703.7350 0.0958
3703.7360 0.2791
3703.7370 0.1034
3703.7380 0.1508
3703.7390 0.1741
3703.7400 0.1018
3703.7410 0.1347
3703.7420 0.1102
3703.7430 0.0260
3703.7440 0.1090
3703.7450 0.2047
3703.7460 0.1152
3703.7470 0.1187
3703.7480 0.1319
3703.7490 0.0810
3703.7500 0.1421
3703.7510 0.1018
3703.7520 0.0746
3703.7530 0.1509
3703.7540 0.2208
3703.7550 0.0810
3703.7560 0.2713
3703.7570 0.2500
3703.7580 0.1760
3703.7590 0.1093
3703.7600 0.1815
3703.7610 0.0518
3703.7620 0.1508
3703.7630 0.1292
3703.7640 0.0778
3703.7650 0.1309
3703.7660 0.0926
3703.7670 0.0431
3703.7680 0.0710
3703.7690 0.0575
3703.7700 0.1017
3703.7710 0.1219
3703.7720 0.0421
3703.7730 0.0643
3703.7740 0.0880
3703.7750 0.0966
3703.7760 0.0870
3703.7770 0.0589
3703.7780 0.1200
3703.7790 0.1136
3703.7800 0.0523
3703.7810 0.1090
3703.7820 0.0990
3703.7830 0.1580
3703.7840 0.0724
3703.7850 0.1321
3703.7860 0.1075
3703.7870 0.1377
3703.7880 0.1546
3703.7890 0.1233
3703.7900 0.0735
3703.7910 0.0436
3703.7920 0.0920
3703.7930 0.0487
3703.7940 0.0759
3703.7950 0.0402
3703.7960 0.0676
3703.7970 0.0477
3703.7980 0.0670
3703.7990 0.0340
3703.8000 0.2033
3703.8010 0.2281
3703.8020 0.2123
3703.8030 0.2829
3703.8040 0.2271
3703.8050 0.1013
3703.8060 0.0375
3703.8070 0.0496
3703.8080 0.0773
3703.8090 0.0469
3703.8100 0.0313
3703.8110 0.0324
3703.8120 0.0476
3703.8130 0.0352
3703.8140 0.0305
3703.8150 0.0551
3703.8160 0.0585
3703.8170 0.0290
3703.8180 0.0429
3703.8190 0.0442
3703.8200 0.0735
3703.8210 0.0661
3703.8220 0.0606
3703.8230 0.0331
3703.8240 0.0574
3703.8250 0.0401
3703.8260 0.0334
3703.8270 0.0298
3703.8280 0.0276
3703.8290 0.0324
3703.8300 0.0432
3703.8310 0.0192
3703.8320 0.0447
3703.8330 0.0415
3703.8340 0.0292
3703.8350 0.0354
3703.8360 0.0256
3703.8370 0.0299
3703.8380 0.0283
3703.8390 0.0267
3703.8400 0.0307
3703.8410 0.0410
3703.8420 0.0218
3703.8430 0.0406
3703.8440 0.0443
3703.8450 0.0332
3703.8460 0.0460
3703.8470 0.0838
3703.8480 0.0651
3703.8490 0.0840
3703.8500 0.0732
3703.8510 0.0763
3703.8520 0.0761
3703.8530 0.0858
3703.8540 0.1131
3703.8550 0.0818
3703.8560 0.0720
3703.8570 0.0433
3703.8580 0.0747
3703.8590 0.0257
3703.8600 0.0596
3703.8610 0.0430
3703.8620 0.0301
3703.8630 0.0299
3703.8640 0.0232
3703.8650 0.0240
3703.8660 0.0215
3703.8670 0.0261
3703.8680 0.0228
3703.8690 0.0172
3703.8700 0.0194
3703.8710 0.0188
3703.8720 0.0165
3703.8730 0.0169
3703.8740 0.0150
3703.8750 0.0139
3703.8760 0.0158
3703.8770 0.0171
3703.8780 0.0168
3703.8790 0.0259
3703.8800 0.0203
3703.8810 0.0312
3703.8820 0.0402
3703.8830 0.0272
3703.8840 0.0300
3703.8850 0.0141
3703.8860 0.0181
3703.8870 0.0157
3703.8880 0.0171
3703.8890 0.0147
3703.8900 0.0159
3703.8910 0.0146
3703.8920 0.0165
3703.8930 0.0148
3703.8940 0.0142
3703.8950 0.0154
3703.8960 0.0147
3703.8970 0.0139
3703.8980 0.0167
3703.8990 0.0184
3703.9000 0.0132
3703.9010 0.0134
3703.9020 0.0148
3703.9030 0.0152
3703.9040 0.0131
3703.9050 0.0140
3703.9060 0.0144
3703.9070 0.0170
3703.9080 0.0170
3703.9090 0.0167
3703.9100 0.0180
3703.9110 0.0139
3703.9120 0.0268
3703.9130 0.0180
3703.9140 0.0524
3703.9150 0.0247
3703.9160 0.0351
3703.9170 0.0301
3703.9180 0.0272
3703.9190 0.0267
3703.9200 0.0342
3703.9210 0.0232
3703.9220 0.0176
3703.9230 0.0169
3703.9240 0.0188
3703.9250 0.0273
3703.9260 0.0226
3703.9270 0.0148
3703.9280 0.0168
3703.9290 0.0159
3703.9300 0.0165
3703.9310 0.0141
3703.9320 0.0145
3703.9330 0.0159
3703.9340 0.0182
3703.9350 0.0138
3703.9360 0.0183
3703.9370 0.0176
3703.9380 0.0186
3703.9390 0.0172
3703.9400 0.0202
3703.9410 0.0149
3703.9420 0.0157
3703.9430 0.0227
3703.9440 0.0136
3703.9450 0.0183
3703.9460 0.0132
3703.9470 0.0159
3703.9480 0.0141
3703.9490 0.0143
3703.9500 0.0162
3703.9510 0.0176
3703.9520 0.0142
3703.9530 0.0144
3703.9540 0.0148
3703.9550 0.0281
3703.9560 0.0219
3703.9570 0.0212
3703.9580 0.0182
3703.9590 0.0206
3703.9600 0.0167
3703.9610 0.0190
3703.9620 0.0173
3703.9630 0.0167
3703.9640 0.0123
3703.9650 0.0208
3703.9660 0.0200
3703.9670 0.0194
3703.9680 0.0170
3703.9690 0.0149
3703.9700 0.0158
3703.9710 0.0176
3703.9720 0.0183
3703.9730 0.0208
3703.9740 0.0255
3703.9750 0.0144
3703.9760 0.0317
3703.9770 0.0280
3703.9780 0.0289
3703.9790 0.0352
3703.9800 0.0170
3703.9810 0.0298
3703.9820 0.0363
3703.9830 0.0885
3703.9840 0.0465
3703.9850 0.0856
3703.9860 0.0396
3703.9870 0.0442
3703.9880 0.0306
3703.9890 0.0242
3703.9900 0.0172
3703.9910 0.0155
3703.9920 0.0204
3703.9930 0.0315
3703.9940 0.0219
3703.9950 0.0171
3703.9960 0.0292
3703.9970 0.0276
3703.9980 0.0260
3703.9990 0.0188
3704.0000 0.0293
3704.0010 0.0227
3704.0020 0.0274
3704.0030 0.0201
3704.0040 0.0342
3704.0050 0.0420
3704.0060 0.0268
3704.0070 0.0241
3704.0080 0.0506
3704.0090 0.0283
3704.0100 0.0544
3704.0110 0.0401
3704.0120 0.0318
3704.0130 0.0614
3704.0140 0.0604
3704.0150 0.0420
3704.0160 0.0826
3704.0170 0.1073
3704.0180 0.1425
3704.0190 0.1817
3704.0200 0.2195
3704.0210 0.1472
3704.0220 0.2314
3704.0230 0.1022
3704.0240 0.2529
3704.0250 0.1120
3704.0260 0.1701
3704.0270 0.1061
3704.0280 0.1359
3704.0290 0.0969
3704.0300 0.1598
3704.0310 0.1358
3704.0320 0.1038
3704.0330 0.0763
3704.0340 0.1154
3704.0350 0.0898
3704.0360 0.0757
3704.0370 0.0550
3704.0380 0.0479
3704.0390 0.0555
3704.0400 0.0455
3704.0410 0.0469
3704.0420 0.0564
3704.0430 0.0375
3704.0440 0.0384
3704.0450 0.0426
3704.0460 0.0238
3704.0470 0.0357
3704.0480 0.0309
3704.0490 0.0272
3704.0500 0.0299
3704.0510 0.0241
3704.0520 0.0265
3704.0530 0.0373
3704.0540 0.0329
3704.0550 0.0225
3704.0560 0.0385
3704.0570 0.0261
3704.0580 0.0262
3704.0590 0.0360
3704.0600 0.0431
3704.0610 0.0352
3704.0620 0.0601
3704.0630 0.0556
3704.0640 0.0403
3704.0650 0.0337
3704.0660 0.0315
3704.0670 0.0234
3704.0680 0.0230
3704.0690 0.0314
3704.0700 0.0220
3704.0710 0.0250
3704.0720 0.0235
3704.0730 0.0307
3704.0740 0.0208
3704.0750 0.0333
3704.0760 0.0378
3704.0770 0.0329
3704.0780 0.0279
3704.0790 0.0350
3704.0800 0.0372
3704.0810 0.0516
3704.0820 0.0456
3704.0830 0.0431
3704.0840 0.0450
3704.0850 0.1004
3704.0860 0.0860
3704.0870 0.0873
3704.0880 0.0356
3704.0890 0.0853
3704.0900 0.0794
3704.0910 0.0850
3704.0920 0.1178
3704.0930 0.1106
3704.0940 0.0765
3704.0950 0.0524
3704.0960 0.0662
3704.0970 0.0421
3704.0980 0.0848
3704.0990 0.0549
3704.1000 0.0664
3704.1010 0.0430
3704.1020 0.0311
3704.1030 0.0569
3704.1040 0.0583
3704.1050 0.0497
3704.1060 0.0595
3704.1070 0.0502
3704.1080 0.0628
3704.1090 0.0590
3704.1100 0.0714
3704.1110 0.0960
3704.1120 0.1038
3704.1130 0.1450
3704.1140 0.2228
3704.1150 0.2029
3704.1160 0.0935
3704.1170 0.0877
3704.1180 0.1473
3704.1190 0.1290
3704.1200 0.1135
3704.1210 0.1093
3704.1220 0.0605
3704.1230 0.0869
3704.1240 0.0606
3704.1250 0.0457
3704.1260 0.0368
3704.1270 0.0453
3704.1280 0.0369
3704.1290 0.0303
3704.1300 0.0287
3704.1310 0.0310
3704.1320 0.0275
3704.1330 0.0300
3704.1340 0.0328
3704.1350 0.0199
3704.1360 0.0247
3704.1370 0.0280
3704.1380 0.0276
3704.1390 0.0233
3704.1400 0.0226
3704.1410 0.0254
3704.1420 0.0275
3704.1430 0.0226
3704.1440 0.0238
3704.1450 0.0215
3704.1460 0.0181
3704.1470 0.0218
3704.1480 0.0189
3704.1490 0.0380
3704.1500 0.0243
3704.1510 0.0479
3704.1520 0.0371
3704.1530 0.0276
3704.1540 0.0285
3704.1550 0.0429
3704.1560 0.0523
3704.1570 0.0255
3704.1580 0.0449
3704.1590 0.0538
3704.1600 0.0605
3704.1610 0.0656
3704.1620 0.0403
3704.1630 0.0859
3704.1640 0.0448
3704.1650 0.1023
3704.1660 0.0648
3704.1670 0.0621
3704.1680 0.0691
3704.1690 0.0507
3704.1700 0.0729
3704.1710 0.0714
3704.1720 0.0385
3704.1730 0.0396
3704.1740 0.0698
3704.1750 0.0582
3704.1760 0.0801
3704.1770 0.0502
3704.1780 0.0270
3704.1790 0.0544
3704.1800 0.0281
3704.1810 0.0526
3704.1820 0.0425
3704.1830 0.0499
3704.1840 0.0486
3704.1850 0.0773
3704.1860 0.0727
3704.1870 0.0806
3704.1880 0.0897
3704.1890 0.0731
3704.1900 0.1542
3704.1910 0.1676
3704.1920 0.2436
3704.1930 0.1766
3704.1940 0.2343
3704.1950 0.1694
3704.1960 0.1337
3704.1970 0.0906
3704.1980 0.0973
3704.1990 0.1694
3704.2000 0.0762
3704.2010 0.0933
3704.2020 0.0587
3704.2030 0.0975
3704.2040 0.0779
3704.2050 0.0720
3704.2060 0.1347
3704.2070 0.0911
3704.2080 0.0679
3704.2090 0.0810
3704.2100 0.0744
3704.2110 0.0737
3704.2120 0.0330
3704.2130 0.0278
3704.2140 0.0329
3704.2150 0.0246
3704.2160 0.0370
3704.2170 0.0369
3704.2180 0.0342
3704.2190 0.0401
3704.2200 0.0217
3704.2210 0.0264
3704.2220 0.0409
3704.2230 0.0269
3704.2240 0.0182
3704.2250 0.0257
3704.2260 0.0243
3704.2270 0.0257
3704.2280 0.0308
3704.2290 0.0225
3704.2300 0.0175
3704.2310 0.0256
3704.2320 0.0292
3704.2330 0.0198
3704.2340 0.0220
3704.2350 0.0352
3704.2360 0.0357
3704.2370 0.0270
3704.2380 0.0323
3704.2390 0.0549
3704.2400 0.0317
3704.2410 0.0384
3704.2420 0.0351
3704.2430 0.0188
3704.2440 0.0650
3704.2450 0.0276
3704.2460 0.0423
3704.2470 0.0313
3704.2480 0.0279
3704.2490 0.0270
3704.2500 0.0253
3704.2510 0.0383
3704.2520 0.0341
3704.2530 0.0255
3704.2540 0.0296
3704.2550 0.0309
3704.2560 0.0202
3704.2570 0.0240
3704.2580 0.0294
3704.2590 0.0289
3704.2600 0.0280
3704.2610 0.0433
3704.2620 0.0434
3704.2630 0.0451
3704.2640 0.0308
3704.2650 0.0280
3704.2660 0.0299
3704.2670 0.0255
3704.2680 0.0269
3704.2690 0.0331
3704.2700 0.0299
3704.2710 0.0436
3704.2720 0.0323
3704.2730 0.0279
3704.2740 0.0345
3704.2750 0.0229
3704.2760 0.0139
3704.2770 0.0248
3704.2780 0.0161
3704.2790 0.0235
3704.2800 0.0338
3704.2810 0.0205
3704.2820 0.0317
3704.2830 0.0305
3704.2840 0.0215
3704.2850 0.0218
3704.2860 0.0256
3704.2870 0.0198
3704.2880 0.0141
3704.2890 0.0309
3704.2900 0.0233
3704.2910 0.0229
3704.2920 0.0251
3704.2930 0.0225
3704.2940 0.0153
3704.2950 0.0215
3704.2960 0.0307
3704.2970 0.0264
3704.2980 0.0197
3704.2990 0.0223
3704.3000 0.0207
3704.3010 0.0225
3704.3020 0.0275
3704.3030 0.0243
3704.3040 0.0219
3704.3050 0.0239
3704.3060 0.0385
3704.3070 0.0221
3704.3080 0.0379
3704.3090 0.0504
3704.3100 0.0339
3704.3110 0.0665
3704.3120 0.0402
3704.3130 0.0239
3704.3140 0.0157
3704.3150 0.0257
3704.3160 0.0287
3704.3170 0.0260
3704.3180 0.0223
3704.3190 0.0227
3704.3200 0.0169
3704.3210 0.0192
3704.3220 0.0143
3704.3230 0.0166
3704.3240 0.0178
3704.3250 0.0142
3704.3260 0.0154
3704.3270 0.0199
3704.3280 0.0211
3704.3290 0.0225
3704.3300 0.0154
3704.3310 0.0133
3704.3320 0.0167
3704.3330 0.0895
3704.3340 0.0618
3704.3350 0.0387
3704.3360 0.0433
3704.3370 0.0255
3704.3380 0.0184
3704.3390 0.0175
3704.3400 0.0134
3704.3410 0.0164
3704.3420 0.0125
3704.3430 0.0163
3704.3440 0.0159
3704.3450 0.0213
3704.3460 0.0158
3704.3470 0.0249
3704.3480 0.0208
3704.3490 0.0204
3704.3500 0.0206
3704.3510 0.0234
3704.3520 0.0224
3704.3530 0.0177
3704.3540 0.0193
3704.3550 0.0213
3704.3560 0.0246
3704.3570 0.0315
3704.3580 0.0222
3704.3590 0.0237
3704.3600 0.0280
3704.3610 0.0275
3704.3620 0.0471
3704.3630 0.0568
3704.3640 0.0515
3704.3650 0.0670
3704.3660 0.0416
3704.3670 0.1143
3704.3680 0.0819
3704.3690 0.0698
3704.3700 0.1886
3704.3710 0.1462
3704.3720 0.2579
3704.3730 0.2135
3704.3740 0.2762
3704.3750 0.1719
3704.3760 0.1854
3704.3770 0.1822
3704.3780 0.0559
3704.3790 0.0626
3704.3800 0.0580
3704.3810 0.0306
3704.3820 0.0298
3704.3830 0.0225
3704.3840 0.0327
3704.3850 0.0284
3704.3860 0.0254
3704.3870 0.0191
3704.3880 0.0199
3704.3890 0.0194
3704.3900 0.0218
3704.3910 0.0215
3704.3920 0.0173
3704.3930 0.0168
3704.3940 0.0178
3704.3950 0.0202
3704.3960 0.0157
3704.3970 0.0166
3704.3980 0.0155
3704.3990 0.0169
3704.4000 0.0141
3704.4010 0.0124
3704.4020 0.0160
3704.4030 0.0176
3704.4040 0.0278
3704.4050 0.0604
3704.4060 0.0142
3704.4070 0.0267
3704.4080 0.0201
3704.4090 0.0173
3704.4100 0.0244
3704.4110 0.0209
3704.4120 0.0226
3704.4130 0.0196
3704.4140 0.0240
3704.4150 0.0274
3704.4160 0.0262
3704.4170 0.0261
3704.4180 0.0272
3704.4190 0.0265
3704.4200 0.0222
3704.4210 0.0207
3704.4220 0.0195
3704.4230 0.0381
3704.4240 0.0197
3704.4250 0.0220
3704.4260 0.0297
3704.4270 0.0262
3704.4280 0.0211
3704.4290 0.0217
3704.4300 0.0152
3704.4310 0.0140
3704.4320 0.0174
3704.4330 0.0152
3704.4340 0.0135
3704.4350 0.0134
3704.4360 0.0149
3704.4370 0.0141
3704.4380 0.0165
3704.4390 0.0132
3704.4400 0.0131
3704.4410 0.0198
3704.4420 0.0143
3704.4430 0.0165
3704.4440 0.0222
3704.4450 0.0186
3704.4460 0.0181
3704.4470 0.0145
3704.4480 0.0162
3704.4490 0.0222
3704.4500 0.0224
3704.4510 0.0236
3704.4520 0.0176
3704.4530 0.0183
3704.4540 0.0177
3704.4550 0.0163
3704.4560 0.0181
3704.4570 0.0172
3704.4580 0.0131
3704.4590 0.0141
3704.4600 0.0131
3704.4610 0.0130
3704.4620 0.0139
3704.4630 0.0126
3704.4640 0.0115
3704.4650 0.0116
3704.4660 0.0114
3704.4670 0.0107
3704.4680 0.0104
3704.4690 0.0114
3704.4700 0.0112
3704.4710 0.0112
3704.4720 0.0131
3704.4730 0.0117
3704.4740 0.0077
3704.4750 0.0102
3704.4760 0.0092
3704.4770 0.0100
3704.4780 0.0093
3704.4790 0.0101
3704.4800 0.0112
3704.4810 0.0101
3704.4820 0.0115
3704.4830 0.0104
3704.4840 0.0069
3704.4850 0.0087
3704.4860 0.0080
3704.4870 0.0099
3704.4880 0.0083
3704.4890 0.0083
3704.4900 0.0099
3704.4910 0.0102
3704.4920 0.0102
3704.4930 0.0089
3704.4940 0.0088
3704.4950 0.0106
3704.4960 0.0097
3704.4970 0.0099
3704.4980 0.0089
3704.4990 0.0091
3704.5000 0.0115
3704.5010 0.0085
3704.5020 0.0083
3704.5030 0.0111
3704.5040 0.0091
3704.5050 0.0088
3704.5060 0.0086
3704.5070 0.0109
3704.5080 0.0096
3704.5090 0.0111
3704.5100 0.0118
3704.5110 0.0105
3704.5120 0.0089
3704.5130 0.0109
3704.5140 0.0105
3704.5150 0.0104
3704.5160 0.0122
3704.5170 0.0104
3704.5180 0.0136
3704.5190 0.0129
3704.5200 0.0128
3704.5210 0.0132
3704.5220 0.0141
3704.5230 0.0137
3704.5240 0.0167
3704.5250 0.0150
3704.5260 0.0165
3704.5270 0.0256
3704.5280 0.0173
3704.5290 0.0229
3704.5300 0.0210
3704.5310 0.0205
3704.5320 0.0211
3704.5330 0.0271
3704.5340 0.0295
3704.5350 0.0538
3704.5360 0.0320
3704.5370 0.0378
3704.5380 0.0556
3704.5390 0.0983
3704.5400 0.1002
3704.5410 0.0872
3704.5420 0.1637
3704.5430 0.1409
3704.5440 0.1624
3704.5450 0.0547
3704.5460 0.3171
3704.5470 0.1171
3704.5480 0.2660
3704.5490 0.1997
3704.5500 0.1335
3704.5510 0.2245
3704.5520 0.1075
3704.5530 0.1872
3704.5540 0.1030
3704.5550 0.0471
3704.5560 0.0560
3704.5570 0.1301
3704.5580 0.0975
3704.5590 0.1513
3704.5600 0.0865
3704.5610 0.1284
3704.5620 0.0671
3704.5630 0.0943
3704.5640 0.1119
3704.5650 0.0607
3704.5660 0.0501
3704.5670 0.0570
3704.5680 0.0466
3704.5690 0.0581
3704.5700 0.0368
3704.5710 0.0581
3704.5720 0.0388
3704.5730 0.0348
3704.5740 0.0269
3704.5750 0.0388
3704.5760 0.0436
3704.5770 0.0338
3704.5780 0.0253
3704.5790 0.0353
3704.5800 0.0413
3704.5810 0.0260
3704.5820 0.0268
3704.5830 0.0566
3704.5840 0.0800
3704.5850 0.0755
3704.5860 0.0479
3704.5870 0.0355
3704.5880 0.0224
3704.5890 0.0245
3704.5900 0.0235
3704.5910 0.0245
3704.5920 0.0209
3704.5930 0.0247
3704.5940 0.0197
3704.5950 0.0228
3704.5960 0.0140
3704.5970 0.0233
3704.5980 0.0261
3704.5990 0.0189
3704.6000 0.0226
3704.6010 0.0279
3704.6020 0.0216
3704.6030 0.0210
3704.6040 0.0216
3704.6050 0.0279
3704.6060 0.0249
3704.6070 0.0200
3704.6080 0.0176
3704.6090 0.0252
3704.6100 0.0215
3704.6110 0.0160
3704.6120 0.0222
3704.6130 0.0193
3704.6140 0.0211
3704.6150 0.0158
3704.6160 0.0168
3704.6170 0.0201
3704.6180 0.0214
3704.6190 0.0130
3704.6200 0.0214
3704.6210 0.0255
3704.6220 0.0341
3704.6230 0.0362
3704.6240 0.0363
3704.6250 0.0561
3704.6260 0.0893
3704.6270 0.0939
3704.6280 0.0580
3704.6290 0.0323
3704.6300 0.0215
3704.6310 0.0195
3704.6320 0.0214
3704.6330 0.0213
3704.6340 0.0182
3704.6350 0.0187
3704.6360 0.0144
3704.6370 0.0173
3704.6380 0.0192
3704.6390 0.0217
3704.6400 0.0182
3704.6410 0.0163
3704.6420 0.0247
3704.6430 0.0177
3704.6440 0.0124
3704.6450 0.0153
3704.6460 0.0222
3704.6470 0.0186
3704.6480 0.0186
3704.6490 0.0275
3704.6500 0.0255
3704.6510 0.0243
3704.6520 0.0329
3704.6530 0.0214
3704.6540 0.0277
3704.6550 0.0230
3704.6560 0.0202
3704.6570 0.0252
3704.6580 0.0156
3704.6590 0.0185
3704.6600 0.0222
3704.6610 0.0249
3704.6620 0.0336
3704.6630 0.0371
3704.6640 0.0228
3704.6650 0.0223
3704.6660 0.0244
3704.6670 0.0317
3704.6680 0.0247
3704.6690 0.0253
3704.6700 0.0233
3704.6710 0.0230
3704.6720 0.0272
3704.6730 0.0271
3704.6740 0.0207
3704.6750 0.0265
3704.6760 0.0274
3704.6770 0.0270
3704.6780 0.0433
3704.6790 0.0320
3704.6800 0.0363
3704.6810 0.0360
3704.6820 0.0476
3704.6830 0.0791
3704.6840 0.0619
3704.6850 0.0596
3704.6860 0.0558
3704.6870 0.0427
3704.6880 0.0294
3704.6890 0.0446
3704.6900 0.0428
3704.6910 0.0580
3704.6920 0.0387
3704.6930 0.0506
3704.6940 0.0315
3704.6950 0.0413
3704.6960 0.0324
3704.6970 0.0492
3704.6980 0.0595
3704.6990 0.0585
3704.7000 0.0465
3704.7010 0.0399
3704.7020 0.0333
3704.7030 0.0486
3704.7040 0.0353
3704.7050 0.0534
3704.7060 0.0490
3704.7070 0.0464
3704.7080 0.0424
3704.7090 0.0551
3704.7100 0.0685
3704.7110 0.0729
3704.7120 0.0797
3704.7130 0.0838
3704.7140 0.0969
3704.7150 0.0690
3704.7160 0.0775
3704.7170 0.1070
3704.7180 0.1048
3704.7190 0.0806
3704.7200 0.1004
3704.7210 0.0826
3704.7220 0.1387
3704.7230 0.1171
3704.7240 0.1831
3704.7250 0.1531
3704.7260 0.1537
3704.7270 0.2722
3704.7280 0.2706
3704.7290 0.3497
3704.7300 0.1780
3704.7310 0.3083
3704.7320 0.3197
3704.7330 0.3838
3704.7340 0.4517
3704.7350 0.4469
3704.7360 0.3359
3704.7370 0.3949
3704.7380 0.2551
3704.7390 0.1960
3704.7400 0.2036
3704.7410 0.1312
3704.7420 0.1237
3704.7430 0.0961
3704.7440 0.1047
3704.7450 0.0816
3704.7460 0.0703
3704.7470 0.0652
3704.7480 0.0674
3704.7490 0.0470
3704.7500 0.0472
3704.7510 0.0339
3704.7520 0.0333
3704.7530 0.0391
3704.7540 0.0381
3704.7550 0.0367
3704.7560 0.0325
3704.7570 0.0450
3704.7580 0.0322
3704.7590 0.0258
3704.7600 0.0314
3704.7610 0.0300
3704.7620 0.0538
3704.7630 0.0478
3704.7640 0.0591
3704.7650 0.0529
3704.7660 0.0680
3704.7670 0.0478
3704.7680 0.0523
3704.7690 0.0171
3704.7700 0.0418
3704.7710 0.0209
3704.7720 0.0144
3704.7730 0.0214
3704.7740 0.0173
3704.7750 0.0180
3704.7760 0.0229
3704.7770 0.0110
3704.7780 0.0210
3704.7790 0.0200
3704.7800 0.0192
3704.7810 0.0134
3704.7820 0.0156
3704.7830 0.0120
3704.7840 0.0218
3704.7850 0.0173
3704.7860 0.0175
3704.7870 0.0149
3704.7880 0.0173
3704.7890 0.0169
3704.7900 0.0146
3704.7910 0.0270
3704.7920 0.0162
3704.7930 0.0230
3704.7940 0.0278
3704.7950 0.0252
3704.7960 0.0284
3704.7970 0.0215
3704.7980 0.0281
3704.7990 0.0276
3704.8000 0.0596
3704.8010 0.0754
3704.8020 0.0838
3704.8030 0.0484
3704.8040 0.0317
3704.8050 0.0233
3704.8060 0.0183
3704.8070 0.0197
3704.8080 0.0150
3704.8090 0.0199
3704.8100 0.0165
3704.8110 0.0138
3704.8120 0.0192
3704.8130 0.0122
3704.8140 0.0185
3704.8150 0.0233
3704.8160 0.0165
3704.8170 0.0239
3704.8180 0.0224
3704.8190 0.0141
3704.8200 0.0148
3704.8210 0.0201
3704.8220 0.0183
3704.8230 0.0155
3704.8240 0.0120
3704.8250 0.0180
3704.8260 0.0145
3704.8270 0.0137
3704.8280 0.0154
3704.8290 0.0193
3704.8300 0.0116
3704.8310 0.0119
3704.8320 0.0140
3704.8330 0.0152
3704.8340 0.0158
3704.8350 0.0144
3704.8360 0.0175
3704.8370 0.0213
3704.8380 0.0155
3704.8390 0.0143
3704.8400 0.0165
3704.8410 0.0142
3704.8420 0.0149
3704.8430 0.0153
3704.8440 0.0189
3704.8450 0.0169
3704.8460 0.0160
3704.8470 0.0187
3704.8480 0.0184
3704.8490 0.0143
3704.8500 0.0153
3704.8510 0.0230
3704.8520 0.0165
3704.8530 0.0098
3704.8540 0.0188
3704.8550 0.0195
3704.8560 0.0123
3704.8570 0.0199
3704.8580 0.0201
3704.8590 0.0200
3704.8600 0.0159
3704.8610 0.0184
3704.8620 0.0208
3704.8630 0.0142
3704.8640 0.0158
3704.8650 0.0207
3704.8660 0.0229
3704.8670 0.0167
3704.8680 0.0170
3704.8690 0.0145
3704.8700 0.0173
3704.8710 0.0193
3704.8720 0.0144
3704.8730 0.0220
3704.8740 0.0204
3704.8750 0.0228
3704.8760 0.0257
3704.8770 0.0160
3704.8780 0.0198
3704.8790 0.0271
3704.8800 0.0191
3704.8810 0.0264
3704.8820 0.0289
3704.8830 0.0252
3704.8840 0.0218
3704.8850 0.0167
3704.8860 0.0239
3704.8870 0.0376
3704.8880 0.0475
3704.8890 0.0425
3704.8900 0.0342
3704.8910 0.0299
3704.8920 0.0411
3704.8930 0.0455
3704.8940 0.1050
3704.8950 0.0816
3704.8960 0.0741
3704.8970 0.0999
3704.8980 0.0897
3704.8990 0.1313
3704.9000 0.1281
3704.9010 0.1737
3704.9020 0.2849
3704.9030 0.4122
3704.9040 0.4796
3704.9050 0.4817
3704.9060 0.9698
3704.9070 0.7366
3704.9080 0.8680
3704.9090 0.8888
3704.9100 1.0000
3704.9110 0.5449
3704.9120 0.4224
3704.9130 0.3974
3704.9140 0.4299
3704.9150 0.2842
3704.9160 0.1727
3704.9170 0.1332
3704.9180 0.0839
3704.9190 0.1592
3704.9200 0.1298
3704.9210 0.1618
3704.9220 0.1316
3704.9230 0.0750
3704.9240 0.0590
3704.9250 0.0544
3704.9260 0.0436
3704.9270 0.0541
3704.9280 0.0367
3704.9290 0.0329
3704.9300 0.0369
3704.9310 0.0451
3704.9320 0.0471
3704.9330 0.0315
3704.9340 0.0248
3704.9350 0.0188
3704.9360 0.0323
3704.9370 0.0270
3704.9380 0.0231
3704.9390 0.0287
3704.9400 0.0314
3704.9410 0.0268
3704.9420 0.0324
3704.9430 0.0311
3704.9440 0.0331
3704.9450 0.0251
3704.9460 0.0300
3704.9470 0.0211
3704.9480 0.0204
3704.9490 0.0255
3704.9500 0.0194
3704.9510 0.0253
3704.9520 0.0711
3704.9530 0.0658
3704.9540 0.0795
3704.9550 0.0477
3704.9560 0.0443
3704.9570 0.0494
3704.9580 0.0368
3704.9590 0.0342
3704.9600 0.0274
3704.9610 0.0278
3704.9620 0.0270
3704.9630 0.0210
3704.9640 0.0258
3704.9650 0.0253
3704.9660 0.0310
3704.9670 0.0247
3704.9680 0.0409
3704.9690 0.0192
3704.9700 0.0216
3704.9710 0.0308
3704.9720 0.0283
3704.9730 0.0263
3704.9740 0.0255
3704.9750 0.0250
3704.9760 0.0294
3704.9770 0.0228
3704.9780 0.0272
3704.9790 0.0143
3704.9800 0.0204
3704.9810 0.0360
3704.9820 0.0368
3704.9830 0.0371
3704.9840 0.0362
3704.9850 0.0336
3704.9860 0.0256
3704.9870 0.0262
3704.9880 0.0296
3704.9890 0.0316
3704.9900 0.0289
3704.9910 0.0300
3704.9920 0.0469
3704.9930 0.0341
3704.9940 0.0381
3704.9950 0.0317
3704.9960 0.0811
3704.9970 0.2025
3704.9980 0.0706
3704.9990 0.1688
3705.0000 0.1046
3705.0010 0.1132
3705.0020 0.0520
3705.0030 0.0427
3705.0040 0.0500
3705.0050 0.0672
3705.0060 0.0396
3705.0070 0.0559
3705.0080 0.0523
3705.0090 0.0434
3705.0100 0.0759
3705.0110 0.0269
3705.0120 0.0497
3705.0130 0.0421
3705.0140 0.0452
3705.0150 0.0544
3705.0160 0.0292
3705.0170 0.0413
3705.0180 0.0340
3705.0190 0.0409
3705.0200 0.0400
3705.0210 0.0513
3705.0220 0.0466
3705.0230 0.0419
3705.0240 0.0358
3705.0250 0.0363
3705.0260 0.0356
3705.0270 0.0473
3705.0280 0.0402
3705.0290 0.0412
3705.0300 0.0375
3705.0310 0.0487
3705.0320 0.0441
3705.0330 0.0452
3705.0340 0.0445
3705.0350 0.0324
3705.0360 0.0333
3705.0370 0.0302
3705.0380 0.0331
3705.0390 0.0509
3705.0400 0.0429
3705.0410 0.0718
3705.0420 0.0527
3705.0430 0.0621
3705.0440 0.0630
3705.0450 0.0460
3705.0460 0.0323
3705.0470 0.0441
3705.0480 0.0330
3705.0490 0.0436
3705.0500 0.0563
3705.0510 0.0370
3705.0520 0.0584
3705.0530 0.0425
3705.0540 0.0403
3705.0550 0.0320
3705.0560 0.0379
3705.0570 0.0373
3705.0580 0.0259
3705.0590 0.0474
3705.0600 0.0432
3705.0610 0.0624
3705.0620 0.0559
3705.0630 0.0393
3705.0640 0.0417
3705.0650 0.0353
3705.0660 0.0646
3705.0670 0.0570
3705.0680 0.0467
3705.0690 0.0445
3705.0700 0.0447
3705.0710 0.0281
3705.0720 0.0884
3705.0730 0.0438
3705.0740 0.0729
3705.0750 0.0613
3705.0760 0.0617
3705.0770 0.0730
3705.0780 0.0585
3705.0790 0.0683
3705.0800 0.0900
3705.0810 0.1109
3705.0820 0.1058
3705.0830 0.1441
3705.0840 0.1334
3705.0850 0.0680
3705.0860 0.1356
3705.0870 0.1102
3705.0880 0.0837
3705.0890 0.0992
3705.0900 0.0904
3705.0910 0.0946
3705.0920 0.1097
3705.0930 0.1126
3705.0940 0.0727
3705.0950 0.0969
3705.0960 0.0738
3705.0970 0.0717
3705.0980 0.0869
3705.0990 0.0841
3705.1000 0.0991
3705.1010 0.1308
3705.1020 0.1577
3705.1030 0.1110
3705.1040 0.0958
3705.1050 0.1363
3705.1060 0.0905
3705.1070 0.0999
3705.1080 0.0950
3705.1090 0.0852
3705.1100 0.1110
3705.1110 0.0766
3705.1120 0.0980
3705.1130 0.0671
3705.1140 0.0719
3705.1150 0.0804
3705.1160 0.0657
3705.1170 0.0848
3705.1180 0.0620
3705.1190 0.0786
3705.1200 0.0481
3705.1210 0.0705
3705.1220 0.0916
3705.1230 0.0545
3705.1240 0.0622
3705.1250 0.0594
3705.1260 0.0756
3705.1270 0.0591
3705.1280 0.0445
3705.1290 0.0723
3705.1300 0.0386
3705.1310 0.0949
3705.1320 0.0450
3705.1330 0.0556
3705.1340 0.0625
3705.1350 0.0347
3705.1360 0.0556
3705.1370 0.0684
3705.1380 0.0858
3705.1390 0.0731
3705.1400 0.0942
3705.1410 0.0728
3705.1420 0.0921
3705.1430 0.0800
3705.1440 0.0722
3705.1450 0.0982
3705.1460 0.0851
3705.1470 0.0729
3705.1480 0.1262
3705.1490 0.0878
3705.1500 0.0928
3705.1510 0.0961
3705.1520 0.0751
3705.1530 0.0664
3705.1540 0.0622
3705.1550 0.0675
3705.1560 0.0732
3705.1570 0.0821
3705.1580 0.1473
3705.1590 0.1095
3705.1600 0.1124
3705.1610 0.0850
3705.1620 0.0655
3705.1630 0.0558
3705.1640 0.0604
3705.1650 0.0456
3705.1660 0.0530
3705.1670 0.0687
3705.1680 0.0568
3705.1690 0.0671
3705.1700 0.0756
3705.1710 0.0656
3705.1720 0.0723
3705.1730 0.0578
3705.1740 0.0450
3705.1750 0.0555
3705.1760 0.0506
3705.1770 0.0574
3705.1780 0.0671
3705.1790 0.0524
3705.1800 0.0446
3705.1810 0.0447
3705.1820 0.0501
3705.1830 0.0371
3705.1840 0.0584
3705.1850 0.0441
3705.1860 0.0648
3705.1870 0.0765
3705.1880 0.0496
3705.1890 0.0379
3705.1900 0.0531
3705.1910 0.0594
3705.1920 0.0597
3705.1930 0.0526
3705.1940 0.0600
3705.1950 0.0537
3705.1960 0.0550
3705.1970 0.0715
3705.1980 0.0891
3705.1990 0.0818
3705.2000 0.0721
3705.2010 0.0912
3705.2020 0.0606
3705.2030 0.0615
3705.2040 0.0459
3705.2050 0.0603
3705.2060 0.0614
3705.2070 0.0528
3705.2080 0.0411
3705.2090 0.0601
3705.2100 0.0401
3705.2110 0.0492
3705.2120 0.0549
3705.2130 0.0405
3705.2140 0.0508
3705.2150 0.0414
3705.2160 0.0351
3705.2170 0.0432
3705.2180 0.0276
3705.2190 0.0691
3705.2200 0.0387
3705.2210 0.0424
3705.2220 0.0451
3705.2230 0.0425
3705.2240 0.0422
3705.2250 0.0545
3705.2260 0.0310
3705.2270 0.0465
3705.2280 0.0544
3705.2290 0.0222
3705.2300 0.0279
3705.2310 0.0477
3705.2320 0.0374
3705.2330 0.0299
3705.2340 0.0532
3705.2350 0.0423
3705.2360 0.0429
3705.2370 0.0501
3705.2380 0.0411
3705.2390 0.0572
3705.2400 0.0654
3705.2410 0.0417
3705.2420 0.0502
3705.2430 0.0700
3705.2440 0.0348
3705.2450 0.0415
3705.2460 0.0439
3705.2470 0.0516
3705.2480 0.0551
3705.2490 0.0481
3705.2500 0.0561
3705.2510 0.0412
3705.2520 0.0721
3705.2530 0.0679
3705.2540 0.0572
3705.2550 0.0704
3705.2560 0.0743
3705.2570 0.0709
3705.2580 0.0960
3705.2590 0.0719
3705.2600 0.0644
3705.2610 0.0669
3705.2620 0.0636
3705.2630 0.0586
3705.2640 0.0427
3705.2650 0.0532
3705.2660 0.0532
3705.2670 0.0622
3705.2680 0.0713
3705.2690 0.0968
3705.2700 0.0748
3705.2710 0.1035
3705.2720 0.1185
3705.2730 0.0810
3705.2740 0.0913
3705.2750 0.0865
3705.2760 0.1470
3705.2770 0.0731
3705.2780 0.1527
3705.2790 0.1301
3705.2800 0.1147
3705.2810 0.1499
3705.2820 0.1855
3705.2830 0.1607
3705.2840 0.2934
3705.2850 0.3544
3705.2860 0.3796
3705.2870 0.5017
3705.2880 0.5339
3705.2890 0.6272
3705.2900 0.5126
3705.2910 0.4242
3705.2920 0.3822
3705.2930 0.3522
3705.2940 0.2490
3705.2950 0.2457
3705.2960 0.2031
3705.2970 0.1026
3705.2980 0.1020
3705.2990 0.1200
3705.3000 0.0907
3705.3010 0.0840
3705.3020 0.0629
3705.3030 0.0689
3705.3040 0.0637
3705.3050 0.0418
3705.3060 0.0653
3705.3070 0.0445
3705.3080 0.0607
3705.3090 0.0450
3705.3100 0.0568
3705.3110 0.0470
3705.3120 0.0476
3705.3130 0.0596
3705.3140 0.0289
3705.3150 0.0535
3705.3160 0.0550
3705.3170 0.0629
3705.3180 0.0666
3705.3190 0.0755
3705.3200 0.0600
3705.3210 0.0855
3705.3220 0.0476
3705.3230 0.0598
3705.3240 0.0433
3705.3250 0.0591
3705.3260 0.0419
3705.3270 0.0627
3705.3280 0.0382
3705.3290 0.0442
3705.3300 0.0352
3705.3310 0.0431
3705.3320 0.0362
3705.3330 0.0456
3705.3340 0.0286
3705.3350 0.0447
3705.3360 0.0343
3705.3370 0.0375
3705.3380 0.0409
3705.3390 0.0393
3705.3400 0.0394
3705.3410 0.0361
3705.3420 0.0375
3705.3430 0.0360
3705.3440 0.0384
3705.3450 0.0587
3705.3460 0.0368
3705.3470 0.0608
3705.3480 0.0390
3705.3490 0.1043
3705.3500 0.1808
3705.3510 0.1872
3705.3520 0.1671
3705.3530 0.0921
3705.3540 0.0520
3705.3550 0.0575
3705.3560 0.1108
3705.3570 0.0867
3705.3580 0.0780
3705.3590 0.0476
3705.3600 0.0389
3705.3610 0.0294
3705.3620 0.0215
3705.3630 0.0225
3705.3640 0.0381
3705.3650 0.0275
3705.3660 0.0286
3705.3670 0.0340
3705.3680 0.0478
3705.3690 0.0315
3705.3700 0.0439
3705.3710 0.0407
3705.3720 0.0416
3705.3730 0.0292
3705.3740 0.0431
3705.3750 0.0343
3705.3760 0.0371
3705.3770 0.0339
3705.3780 0.0514
3705.3790 0.0478
3705.3800 0.0462
3705.3810 0.0461
3705.3820 0.0437
3705.3830 0.0413
3705.3840 0.0375
3705.3850 0.0410
3705.3860 0.0282
3705.3870 0.0218
3705.3880 0.0403
3705.3890 0.0307
3705.3900 0.0316
3705.3910 0.0444
3705.3920 0.0431
3705.3930 0.0340
3705.3940 0.0521
3705.3950 0.0587
3705.3960 0.0933
3705.3970 0.1282
3705.3980 0.1155
3705.3990 0.1674
3705.4000 0.1363
3705.4010 0.0833
3705.4020 0.0601
3705.4030 0.0382
3705.4040 0.0462
3705.4050 0.0345
3705.4060 0.0451
3705.4070 0.0417
3705.4080 0.0461
3705.4090 0.0399
3705.4100 0.0327
3705.4110 0.0266
3705.4120 0.0422
3705.4130 0.0285
3705.4140 0.0310
3705.4150 0.0270
3705.4160 0.0437
3705.4170 0.0332
3705.4180 0.0272
3705.4190 0.0339
3705.4200 0.0449
3705.4210 0.0290
3705.4220 0.0351
3705.4230 0.0284
3705.4240 0.0206
3705.4250 0.0255
3705.4260 0.0222
3705.4270 0.0271
3705.4280 0.0270
3705.4290 0.0373
3705.4300 0.0224
3705.4310 0.0304
3705.4320 0.0280
3705.4330 0.0366
3705.4340 0.0367
3705.4350 0.0382
3705.4360 0.0322
3705.4370 0.0435
3705.4380 0.0249
3705.4390 0.0239
3705.4400 0.0421
3705.4410 0.0380
3705.4420 0.0416
3705.4430 0.0440
3705.4440 0.0321
3705.4450 0.0229
3705.4460 0.0210
3705.4470 0.0223
3705.4480 0.0225
3705.4490 0.0312
3705.4500 0.0269
3705.4510 0.0246
3705.4520 0.0171
3705.4530 0.0252
3705.4540 0.0266
3705.4550 0.0277
3705.4560 0.0391
3705.4570 0.0391
3705.4580 0.0361
3705.4590 0.0297
3705.4600 0.0319
3705.4610 0.0362
3705.4620 0.0684
3705.4630 0.0524
3705.4640 0.0984
3705.4650 0.1159
3705.4660 0.1309
3705.4670 0.2143
3705.4680 0.2757
3705.4690 0.3875
3705.4700 0.6345
3705.4710 0.4766
3705.4720 0.4460
3705.4730 0.3594
3705.4740 0.3072
3705.4750 0.3447
3705.4760 0.1757
3705.4770 0.1154
3705.4780 0.1234
3705.4790 0.1055
3705.4800 0.0651
3705.4810 0.0789
3705.4820 0.0742
3705.4830 0.0880
3705.4840 0.1158
3705.4850 0.0562
3705.4860 0.0555
3705.4870 0.0392
3705.4880 0.0464
3705.4890 0.0356
3705.4900 0.0389
3705.4910 0.0254
3705.4920 0.0272
3705.4930 0.0340
3705.4940 0.0407
3705.4950 0.0287
3705.4960 0.0265
3705.4970 0.0325
3705.4980 0.0356
3705.4990 0.0365
3705.5000 0.0526
3705.5010 0.0618
3705.5020 0.0495
3705.5030 0.0632
3705.5040 0.0276
3705.5050 0.0835
3705.5060 0.0803
3705.5070 0.1057
3705.5080 0.0851
3705.5090 0.0383
3705.5100 0.0399
3705.5110 0.0522
3705.5120 0.0280
3705.5130 0.0402
3705.5140 0.0559
3705.5150 0.0476
3705.5160 0.0914
3705.5170 0.1094
3705.5180 0.1261
3705.5190 0.0614
3705.5200 0.0629
3705.5210 0.0374
3705.5220 0.0327
3705.5230 0.0305
3705.5240 0.0446
3705.5250 0.0424
3705.5260 0.0222
3705.5270 0.0196
3705.5280 0.0130
3705.5290 0.0151
3705.5300 0.0120
3705.5310 0.0111
3705.5320 0.0128
3705.5330 0.0120
3705.5340 0.0115
3705.5350 0.0115
3705.5360 0.0103
3705.5370 0.0126
3705.5380 0.0108
3705.5390 0.0107
3705.5400 0.0122
3705.5410 0.0114
3705.5420 0.0111
3705.5430 0.0130
3705.5440 0.0113
3705.5450 0.0116
3705.5460 0.0120
3705.5470 0.0108
3705.5480 0.0094
3705.5490 0.0097
3705.5500 0.0117
3705.5510 0.0099
3705.5520 0.0115
3705.5530 0.0123
3705.5540 0.0105
3705.5550 0.0110
3705.5560 0.0115
3705.5570 0.0143
3705.5580 0.0125
3705.5590 0.0176
3705.5600 0.0315
3705.5610 0.0386
3705.5620 0.1634
3705.5630 0.0834
3705.5640 0.0398
3705.5650 0.0341
3705.5660 0.0174
3705.5670 0.0147
3705.5680 0.0148
3705.5690 0.0152
3705.5700 0.0136
3705.5710 0.0117
3705.5720 0.0088
3705.5730 0.0089
3705.5740 0.0116
3705.5750 0.0108
3705.5760 0.0093
3705.5770 0.0111
3705.5780 0.0114
3705.5790 0.0112
3705.5800 0.0135
3705.5810 0.0116
3705.5820 0.0119
3705.5830 0.0094
3705.5840 0.0110
3705.5850 0.0116
3705.5860 0.0119
3705.5870 0.0105
3705.5880 0.0125
3705.5890 0.0129
3705.5900 0.0132
3705.5910 0.0137
3705.5920 0.0267
3705.5930 0.0296
3705.5940 0.0309
3705.5950 0.0154
3705.5960 0.0130
3705.5970 0.0097
3705.5980 0.0107
3705.5990 0.0097
3705.6000 0.0108
3705.6010 0.0113
3705.6020 0.0137
3705.6030 0.0105
3705.6040 0.0116
3705.6050 0.0132
3705.6060 0.0115
3705.6070 0.0106
3705.6080 0.0090
3705.6090 0.0131
3705.6100 0.0141
3705.6110 0.0129
3705.6120 0.0184
3705.6130 0.0169
3705.6140 0.0184
3705.6150 0.0144
3705.6160 0.0139
3705.6170 0.0164
3705.6180 0.0133
3705.6190 0.0205
3705.6200 0.0162
3705.6210 0.0164
3705.6220 0.0217
3705.6230 0.0276
3705.6240 0.0301
3705.6250 0.0477
3705.6260 0.0448
3705.6270 0.0277
3705.6280 0.0247
3705.6290 0.0300
3705.6300 0.0367
3705.6310 0.0415
3705.6320 0.0954
3705.6330 0.0583
3705.6340 0.0665
3705.6350 0.0575
3705.6360 0.0345
3705.6370 0.0414
3705.6380 0.0298
3705.6390 0.0435
3705.6400 0.0627
3705.6410 0.0541
3705.6420 0.0603
3705.6430 0.0665
3705.6440 0.0433
3705.6450 0.0456
3705.6460 0.0618
3705.6470 0.0609
3705.6480 0.0683
3705.6490 0.0500
3705.6500 0.0762
3705.6510 0.1082
3705.6520 0.0696
3705.6530 0.1036
3705.6540 0.0839
3705.6550 0.0904
3705.6560 0.0832
3705.6570 0.1514
3705.6580 0.1052
3705.6590 0.0715
3705.6600 0.1404
3705.6610 0.1417
3705.6620 0.0928
3705.6630 0.0807
3705.6640 0.1035
3705.6650 0.0742
3705.6660 0.0723
3705.6670 0.0642
3705.6680 0.0377
3705.6690 0.0671
3705.6700 0.0450
3705.6710 0.0372
3705.6720 0.0357
3705.6730 0.0410
3705.6740 0.0371
3705.6750 0.0312
3705.6760 0.0353
3705.6770 0.0300
3705.6780 0.0290
3705.6790 0.0304
3705.6800 0.0326
3705.6810 0.0288
3705.6820 0.0225
3705.6830 0.0258
3705.6840 0.0218
3705.6850 0.0252
3705.6860 0.0229
3705.6870 0.0353
3705.6880 0.0602
3705.6890 0.0737
3705.6900 0.0610
3705.6910 0.0524
3705.6920 0.0218
3705.6930 0.0271
3705.6940 0.0178
3705.6950 0.0190
3705.6960 0.0194
3705.6970 0.0169
3705.6980 0.0199
3705.6990 0.0155
3705.7000 0.0144
3705.7010 0.0192
3705.7020 0.0157
3705.7030 0.0173
3705.7040 0.0181
3705.7050 0.0256
3705.7060 0.0444
3705.7070 0.0267
3705.7080 0.0169
3705.7090 0.0170
3705.7100 0.0168
3705.7110 0.0163
3705.7120 0.0135
3705.7130 0.0147
3705.7140 0.0148
3705.7150 0.0114
3705.7160 0.0145
3705.7170 0.0135
3705.7180 0.0144
3705.7190 0.0131
3705.7200 0.0128
3705.7210 0.0139
3705.7220 0.0143
3705.7230 0.0146
3705.7240 0.0143
3705.7250 0.0151
3705.7260 0.0144
3705.7270 0.0192
3705.7280 0.0160
3705.7290 0.0215
3705.7300 0.0308
3705.7310 0.0250
3705.7320 0.0219
3705.7330 0.0146
3705.7340 0.0128
3705.7350 0.0151
3705.7360 0.0119
3705.7370 0.0122
3705.7380 0.0135
3705.7390 0.0111
3705.7400 0.0135
3705.7410 0.0128
3705.7420 0.0137
3705.7430 0.0121
3705.7440 0.0121
3705.7450 0.0117
3705.7460 0.0142
3705.7470 0.0161
3705.7480 0.0290
3705.7490 0.0367
3705.7500 0.0718
3705.7510 0.0272
3705.7520 0.0297
3705.7530 0.0274
3705.7540 0.0542
3705.7550 0.0481
3705.7560 0.0373
3705.7570 0.0212
3705.7580 0.0176
3705.7590 0.0123
3705.7600 0.0132
3705.7610 0.0125
3705.7620 0.0130
3705.7630 0.0134
3705.7640 0.0141
3705.7650 0.0150
3705.7660 0.0151
3705.7670 0.0149
3705.7680 0.0134
3705.7690 0.0117
3705.7700 0.0153
3705.7710 0.0392
3705.7720 0.0637
3705.7730 0.0713
3705.7740 0.1059
3705.7750 0.0425
3705.7760 0.0418
3705.7770 0.0255
3705.7780 0.0148
3705.7790 0.0131
3705.7800 0.0123
3705.7810 0.0116
3705.7820 0.0134
3705.7830 0.0116
3705.7840 0.0123
3705.7850 0.0113
3705.7860 0.0147
3705.7870 0.0114
3705.7880 0.0125
3705.7890 0.0115
3705.7900 0.0117
3705.7910 0.0153
3705.7920 0.0113
3705.7930 0.0123
3705.7940 0.0138
3705.7950 0.0141
3705.7960 0.0190
3705.7970 0.0152
3705.7980 0.0194
3705.7990 0.0130
3705.8000 0.0134
3705.8010 0.0156
3705.8020 0.0135
3705.8030 0.0139
3705.8040 0.0136
3705.8050 0.0145
3705.8060 0.0131
3705.8070 0.0138
3705.8080 0.0142
3705.8090 0.0134
3705.8100 0.0127
3705.8110 0.0146
3705.8120 0.0140
3705.8130 0.0171
3705.8140 0.0165
3705.8150 0.0178
3705.8160 0.0229
3705.8170 0.0266
3705.8180 0.0238
3705.8190 0.0339
3705.8200 0.0263
3705.8210 0.0370
3705.8220 0.0336
3705.8230 0.0616
3705.8240 0.0287
3705.8250 0.0192
3705.8260 0.0143
3705.8270 0.0125
3705.8280 0.0171
3705.8290 0.0207
3705.8300 0.0204
3705.8310 0.0165
3705.8320 0.0191
3705.8330 0.0218
3705.8340 0.0248
3705.8350 0.0170
3705.8360 0.0274
3705.8370 0.0229
3705.8380 0.0181
3705.8390 0.0218
3705.8400 0.0194
3705.8410 0.0297
3705.8420 0.0235
3705.8430 0.0336
3705.8440 0.0535
3705.8450 0.0402
3705.8460 0.0382
3705.8470 0.0558
3705.8480 0.0475
3705.8490 0.0609
3705.8500 0.0594
3705.8510 0.0354
3705.8520 0.0812
3705.8530 0.0721
3705.8540 0.1009
3705.8550 0.1104
3705.8560 0.1053
3705.8570 0.1290
3705.8580 0.1396
3705.8590 0.1351
3705.8600 0.1417
3705.8610 0.1985
3705.8620 0.1940
3705.8630 0.1171
3705.8640 0.0726
3705.8650 0.0864
3705.8660 0.1200
3705.8670 0.0960
3705.8680 0.0720
3705.8690 0.0678
3705.8700 0.0350
3705.8710 0.0400
3705.8720 0.0533
3705.8730 0.0460
3705.8740 0.0242
3705.8750 0.0382
3705.8760 0.0482
3705.8770 0.0406
3705.8780 0.0899
3705.8790 0.0954
3705.8800 0.0373
3705.8810 0.0259
3705.8820 0.0167
3705.8830 0.0197
3705.8840 0.0206
3705.8850 0.0189
3705.8860 0.0204
3705.8870 0.0188
3705.8880 0.0396
3705.8890 0.0289
3705.8900 0.0217
3705.8910 0.0181
3705.8920 0.0191
3705.8930 0.0159
3705.8940 0.0146
3705.8950 0.0131
3705.8960 0.0139
3705.8970 0.0135
3705.8980 0.0141
3705.8990 0.0116
3705.9000 0.0106
3705.9010 0.0142
3705.9020 0.0130
3705.9030 0.0127
3705.9040 0.0133
3705.9050 0.0118
3705.9060 0.0158
3705.9070 0.0196
3705.9080 0.0262
3705.9090 0.0192
3705.9100 0.0173
3705.9110 0.0124
3705.9120 0.0163
3705.9130 0.0268
3705.9140 0.0274
3705.9150 0.0336
3705.9160 0.0234
3705.9170 0.0176
3705.9180 0.0128
3705.9190 0.0124
3705.9200 0.0119
3705.9210 0.0132
3705.9220 0.0110
3705.9230 0.0106
3705.9240 0.0103
3705.9250 0.0114
3705.9260 0.0090
3705.9270 0.0123
3705.9280 0.0112
3705.9290 0.0095
3705.9300 0.0120
3705.9310 0.0112
3705.9320 0.0118
3705.9330 0.0100
3705.9340 0.0105
3705.9350 0.0118
3705.9360 0.0113
3705.9370 0.0079
3705.9380 0.0136
3705.9390 0.0093
3705.9400 0.0122
3705.9410 0.0101
3705.9420 0.0107
3705.9430 0.0103
3705.9440 0.0109
3705.9450 0.0116
3705.9460 0.0119
3705.9470 0.0110
3705.9480 0.0111
3705.9490 0.0120
3705.9500 0.0116
3705.9510 0.0115
3705.9520 0.0108
3705.9530 0.0097
3705.9540 0.0101
3705.9550 0.0120
3705.9560 0.0104
3705.9570 0.0105
3705.9580 0.0103
3705.9590 0.0117
3705.9600 0.0122
3705.9610 0.0113
3705.9620 0.0114
3705.9630 0.0117
3705.9640 0.0118
3705.9650 0.0108
3705.9660 0.0111
3705.9670 0.0118
3705.9680 0.0117
3705.9690 0.0124
3705.9700 0.0113
3705.9710 0.0118
3705.9720 0.0156
3705.9730 0.0228
3705.9740 0.0361
3705.9750 0.0500
3705.9760 0.0475
3705.9770 0.0377
3705.9780 0.0259
3705.9790 0.0236
3705.9800 0.0140
3705.9810 0.0339
3705.9820 0.0353
3705.9830 0.0257
3705.9840 0.0207
3705.9850 0.0179
3705.9860 0.0175
3705.9870 0.0305
3705.9880 0.0499
3705.9890 0.0530
3705.9900 0.0273
3705.9910 0.0704
3705.9920 0.0317
3705.9930 0.0217
3705.9940 0.0244
3705.9950 0.0153
3705.9960 0.0189
3705.9970 0.0139
3705.9980 0.0141
3705.9990 0.0201
3706.0000 0.0190
3706.0010 0.0200
3706.0020 0.0140
3706.0030 0.0156
3706.0040 0.0190
3706.0050 0.0161
3706.0060 0.0195
3706.0070 0.0209
3706.0080 0.0187
3706.0090 0.0219
3706.0100 0.0168
3706.0110 0.0118
3706.0120 0.0129
3706.0130 0.0132
3706.0140 0.0126
3706.0150 0.0132
3706.0160 0.0134
3706.0170 0.0150
3706.0180 0.0186
3706.0190 0.0137
3706.0200 0.0162
3706.0210 0.0156
3706.0220 0.0162
3706.0230 0.0162
3706.0240 0.0266
3706.0250 0.0368
3706.0260 0.0463
3706.0270 0.0454
3706.0280 0.0494
3706.0290 0.0308
3706.0300 0.0451
3706.0310 0.0399
3706.0320 0.0460
3706.0330 0.0727
3706.0340 0.0403
3706.0350 0.0233
3706.0360 0.0989
3706.0370 0.1612
3706.0380 0.0960
3706.0390 0.1864
3706.0400 0.1174
3706.0410 0.4594
3706.0420 0.4818
3706.0430 0.3266
3706.0440 0.1719
3706.0450 0.1943
3706.0460 0.1567
3706.0470 0.1289
3706.0480 0.0927
3706.0490 0.0703
3706.0500 0.0732
3706.0510 0.0347
3706.0520 0.0557
3706.0530 0.0970
3706.0540 0.0848
3706.0550 0.0777
3706.0560 0.0733
3706.0570 0.0312
3706.0580 0.0416
3706.0590 0.0632
3706.0600 0.0608
3706.0610 0.0485
3706.0620 0.0304
3706.0630 0.0571
3706.0640 0.0528
3706.0650 0.0246
3706.0660 0.0287
3706.0670 0.0394
3706.0680 0.0299
3706.0690 0.0905
3706.0700 0.0495
3706.0710 0.0392
3706.0720 0.0445
3706.0730 0.0296
3706.0740 0.0563
3706.0750 0.0402
3706.0760 0.0241
3706.0770 0.0253
3706.0780 0.0257
3706.0790 0.0251
3706.0800 0.0254
3706.0810 0.0238
3706.0820 0.0219
3706.0830 0.0408
3706.0840 0.1197
3706.0850 0.0802
3706.0860 0.0918
3706.0870 0.0387
3706.0880 0.0421
3706.0890 0.0245
3706.0900 0.0231
3706.0910 0.0138
3706.0920 0.0133
3706.0930 0.0196
3706.0940 0.0124
3706.0950 0.0099
3706.0960 0.0138
3706.0970 0.0101
3706.0980 0.0045
3706.0990 0.0027
3706.1000 0.0060
3706.1010 0.0045
3706.1020 0.0053
3706.1030 0.0004
3706.1040 0.0059
3706.1050 0.0039
3706.1060 0.0050
3706.1070 0.0052
3706.1080 0.0058
3706.1090 0.0106
3706.1100 0.0147
3706.1110 0.0158
3706.1120 0.0170
3706.1130 0.0121
3706.1140 0.0133
3706.1150 0.0056
3706.1160 0.0049
3706.1170 0.0088
3706.1180 0.0141
3706.1190 0.0713
3706.1200 0.0654
3706.1210 0.0330
3706.1220 0.0410
3706.1230 0.0228
3706.1240 0.0166
3706.1250 0.0163
3706.1260 0.0132
3706.1270 0.0046
3706.1280 0.0049
3706.1290 0.0043
3706.1300 0.0116
3706.1310 0.0033
3706.1320 0.0087
3706.1330 0.0065
3706.1340 0.0080
3706.1350 0.0112
3706.1360 0.0059
3706.1370 0.0089
3706.1380 0.0072
3706.1390 0.0084
3706.1400 0.0057
3706.1410 0.0097
3706.1420 0.0122
3706.1430 0.0100
3706.1440 0.0096
3706.1450 0.0181
3706.1460 0.0083
3706.1470 0.0081
3706.1480 0.0099
3706.1490 0.0083
3706.1500 0.0114
3706.1510 0.0107
3706.1520 0.0064
3706.1530 0.0125
3706.1540 0.0095
3706.1550 0.0065
3706.1560 0.0075
3706.1570 0.0056
3706.1580 0.0060
3706.1590 0.0093
3706.1600 0.0077
3706.1610 0.0067
3706.1620 0.0136
3706.1630 0.0203
3706.1640 0.0305
3706.1650 0.0285
3706.1660 0.0304
3706.1670 0.0325
3706.1680 0.0143
3706.1690 0.0130
3706.1700 0.0062
3706.1710 0.0074
3706.1720 0.0122
3706.1730 0.0109
3706.1740 0.0136
3706.1750 0.0118
3706.1760 0.0102
3706.1770 0.0133
3706.1780 0.0097
3706.1790 0.0117
3706.1800 0.0121
3706.1810 0.0182
3706.1820 0.0159
3706.1830 0.0232
3706.1840 0.0338
3706.1850 0.0324
3706.1860 0.0885
3706.1870 0.1077
3706.1880 0.1244
3706.1890 0.1616
3706.1900 0.0998
3706.1910 0.0783
3706.1920 0.0401
3706.1930 0.0628
3706.1940 0.0337
3706.1950 0.0827
3706.1960 0.0640
3706.1970 0.0788
3706.1980 0.0456
3706.1990 0.0837
3706.2000 0.1444
3706.2010 0.1762
3706.2020 0.3008
3706.2030 0.3971
3706.2040 0.4026
3706.2050 0.6074
3706.2060 0.5437
3706.2070 0.4252
3706.2080 0.1771
3706.2090 0.2265
3706.2100 0.1573
3706.2110 0.1058
3706.2120 0.0818
3706.2130 0.0601
3706.2140 0.1265
3706.2150 0.1133
3706.2160 0.0669
3706.2170 0.0473
3706.2180 0.0594
3706.2190 0.0484
3706.2200 0.0603
3706.2210 0.0146
3706.2220 0.0116
3706.2230 0.0130
3706.2240 0.0106
3706.2250 0.0090
3706.2260 0.0083
3706.2270 0.0108
3706.2280 0.0053
3706.2290 0.0049
3706.2300 0.0078
3706.2310 0.0048
3706.2320 0.0067
3706.2330 0.0084
3706.2340 0.0097
3706.2350 0.0090
3706.2360 0.0159
3706.2370 0.0210
3706.2380 0.0355
3706.2390 0.0152
3706.2400 0.0234
3706.2410 0.0176
3706.2420 0.0114
3706.2430 0.0126
3706.2440 0.0051
3706.2450 0.0077
3706.2460 0.0000
3706.2470 0.0054
3706.2480 0.0047
3706.2490 0.0027
3706.2500 0.0051
3706.2510 0.0099
3706.2520 0.0086
3706.2530 0.0090
3706.2540 0.0051
3706.2550 0.0110
3706.2560 0.0129
3706.2570 0.0235
3706.2580 0.0521
3706.2590 0.0659
3706.2600 0.0728
3706.2610 0.0598
3706.2620 0.0449
3706.2630 0.0897
3706.2640 0.0844
3706.2650 0.1179
3706.2660 0.0878
3706.2670 0.0870
3706.2680 0.0680
3706.2690 0.0250
3706.2700 0.0222
3706.2710 0.0127
3706.2720 0.0174
3706.2730 0.0172
3706.2740 0.0176
3706.2750 0.0202
3706.2760 0.0274
3706.2770 0.0307
3706.2780 0.0590
3706.2790 0.0661
3706.2800 0.1128
3706.2810 0.1097
3706.2820 0.1888
3706.2830 0.0547
3706.2840 0.0712
3706.2850 0.0533
3706.2860 0.0409
3706.2870 0.0277
3706.2880 0.0350
3706.2890 0.0376
3706.2900 0.0459
3706.2910 0.0379
3706.2920 0.0496
3706.2930 0.0587
3706.2940 0.0490
3706.2950 0.0435
3706.2960 0.0532
3706.2970 0.1094
3706.2980 0.0835
3706.2990 0.1431
3706.3000 0.1620
3706.3010 0.1305
3706.3020 0.0793
3706.3030 0.0293
3706.3040 0.1357
3706.3050 0.0544
3706.3060 0.1031
3706.3070 0.1591
3706.3080 0.1270
3706.3090 0.1314
3706.3100 0.2413
3706.3110 0.1068
3706.3120 0.1561
3706.3130 0.1246
3706.3140 0.1296
3706.3150 0.0660
3706.3160 0.1112
3706.3170 0.0715
3706.3180 0.0576
3706.3190 0.0850
3706.3200 0.0577
3706.3210 0.0468
3706.3220 0.0636
3706.3230 0.0525
3706.3240 0.0328
3706.3250 0.0359
3706.3260 0.0375
3706.3270 0.0610
3706.3280 0.0842
3706.3290 0.0856
3706.3300 0.0526
3706.3310 0.0430
3706.3320 0.0280
3706.3330 0.0287
3706.3340 0.0156
3706.3350 0.0182
3706.3360 0.0278
3706.3370 0.0247
3706.3380 0.0444
3706.3390 0.0373
3706.3400 0.0262
3706.3410 0.0192
3706.3420 0.0164
3706.3430 0.0178
3706.3440 0.0140
3706.3450 0.0158
3706.3460 0.0135
3706.3470 0.0190
3706.3480 0.0115
3706.3490 0.0113
3706.3500 0.0125
3706.3510 0.0174
3706.3520 0.0109
3706.3530 0.0146
3706.3540 0.0201
3706.3550 0.0315
3706.3560 0.1019
3706.3570 0.0946
3706.3580 0.0487
3706.3590 0.0497
3706.3600 0.0400
3706.3610 0.0314
3706.3620 0.0209
3706.3630 0.0187
3706.3640 0.0237
3706.3650 0.0217
3706.3660 0.0249
3706.3670 0.0219
3706.3680 0.0258
3706.3690 0.0235
3706.3700 0.0210
3706.3710 0.0171
3706.3720 0.0133
3706.3730 0.0159
3706.3740 0.0133
3706.3750 0.0132
3706.3760 0.0097
3706.3770 0.0146
3706.3780 0.0108
3706.3790 0.0110
3706.3800 0.0121
3706.3810 0.0111
3706.3820 0.0136
3706.3830 0.0124
3706.3840 0.0126
3706.3850 0.0112
3706.3860 0.0074
3706.3870 0.0089
3706.3880 0.0091
3706.3890 0.0083
3706.3900 0.0082
3706.3910 0.0065
3706.3920 0.0060
3706.3930 0.0102
3706.3940 0.0069
3706.3950 0.0075
3706.3960 0.0034
3706.3970 0.0075
3706.3980 0.0112
3706.3990 0.0092
3706.4000 0.0116
3706.4010 0.0151
3706.4020 0.0287
3706.4030 0.0366
3706.4040 0.0226
3706.4050 0.0184
3706.4060 0.0145
3706.4070 0.0072
3706.4080 0.0078
3706.4090 0.0052
3706.4100 0.0059
3706.4110 0.0100
3706.4120 0.0076
3706.4130 0.0131
3706.4140 0.0154
3706.4150 0.0131
3706.4160 0.0144
3706.4170 0.0158
3706.4180 0.0119
3706.4190 0.0064
3706.4200 0.0086
3706.4210 0.0093
3706.4220 0.0092
3706.4230 0.0096
3706.4240 0.0067
3706.4250 0.0077
3706.4260 0.0093
3706.4270 0.0098
3706.4280 0.0102
3706.4290 0.0056
3706.4300 0.0098
3706.4310 0.0108
3706.4320 0.0098
3706.4330 0.0051
3706.4340 0.0032
3706.4350 0.0058
3706.4360 0.0057
3706.4370 0.0056
3706.4380 0.0097
3706.4390 0.0075
3706.4400 0.0207
3706.4410 0.0105
3706.4420 0.0548
3706.4430 0.0771
3706.4440 0.0563
3706.4450 0.0376
3706.4460 0.0156
3706.4470 0.0205
3706.4480 0.0135
3706.4490 0.0076
3706.4500 0.0035
3706.4510 0.0058
3706.4520 0.0078
3706.4530 0.0084
3706.4540 0.0049
3706.4550 0.0079
3706.4560 0.0096
3706.4570 0.0070
3706.4580 0.0252
3706.4590 0.0155
3706.4600 0.0423
3706.4610 0.0270
3706.4620 0.0544
3706.4630 0.0822
3706.4640 0.0568
3706.4650 0.0405
3706.4660 0.0412
3706.4670 0.0238
3706.4680 0.0099
3706.4690 0.0066
3706.4700 0.0058
3706.4710 0.0046
3706.4720 0.0059
3706.4730 0.0090
3706.4740 0.0038
3706.4750 0.0043
3706.4760 0.0181
3706.4770 0.0217
3706.4780 0.0182
3706.4790 0.0169
3706.4800 0.0141
3706.4810 0.0086
3706.4820 0.0149
3706.4830 0.0155
3706.4840 0.0200
3706.4850 0.0182
3706.4860 0.0214
3706.4870 0.0262
3706.4880 0.0318
3706.4890 0.0252
3706.4900 0.0367
3706.4910 0.0171
3706.4920 0.0174
3706.4930 0.0333
3706.4940 0.0331
3706.4950 0.0219
3706.4960 0.0183
3706.4970 0.0242
3706.4980 0.0161
3706.4990 0.0169
3706.5000 0.0221
3706.5010 0.0192
3706.5020 0.0117
3706.5030 0.0091
3706.5040 0.0072
3706.5050 0.0198
3706.5060 0.0134
3706.5070 0.0184
3706.5080 0.0112
3706.5090 0.0174
3706.5100 0.0147
3706.5110 0.0164
3706.5120 0.0225
3706.5130 0.0161
3706.5140 0.0166
3706.5150 0.0132
3706.5160 0.0165
3706.5170 0.0155
3706.5180 0.0120
3706.5190 0.0147
3706.5200 0.0124
3706.5210 0.0070
3706.5220 0.0082
3706.5230 0.0135
3706.5240 0.0187
3706.5250 0.0253
3706.5260 0.0177
3706.5270 0.0219
3706.5280 0.0103
3706.5290 0.0326
3706.5300 0.0244
3706.5310 0.0240
3706.5320 0.0310
3706.5330 0.0499
3706.5340 0.0325
3706.5350 0.0241
3706.5360 0.0178
3706.5370 0.0177
3706.5380 0.0172
3706.5390 0.0156
3706.5400 0.0139
3706.5410 0.0215
3706.5420 0.0169
3706.5430 0.0289
3706.5440 0.0293
3706.5450 0.0369
3706.5460 0.0227
3706.5470 0.0464
3706.5480 0.0519
3706.5490 0.0600
3706.5500 0.0281
3706.5510 0.0299
3706.5520 0.0373
3706.5530 0.0230
3706.5540 0.0330
3706.5550 0.0339
3706.5560 0.0266
3706.5570 0.0226
3706.5580 0.0317
3706.5590 0.0240
3706.5600 0.0184
3706.5610 0.0468
3706.5620 0.0398
3706.5630 0.0350
3706.5640 0.0232
3706.5650 0.0345
3706.5660 0.0208
3706.5670 0.0197
3706.5680 0.0256
3706.5690 0.0234
3706.5700 0.0249
3706.5710 0.0386
3706.5720 0.0285
3706.5730 0.0209
3706.5740 0.0168
3706.5750 0.0191
3706.5760 0.0306
3706.5770 0.0219
3706.5780 0.0273
3706.5790 0.0242
3706.5800 0.0228
3706.5810 0.0281
3706.5820 0.0263
3706.5830 0.0330
3706.5840 0.0290
3706.5850 0.0192
3706.5860 0.0326
3706.5870 0.0237
3706.5880 0.0234
3706.5890 0.0162
3706.5900 0.0138
3706.5910 0.0284
3706.5920 0.0268
3706.5930 0.0295
3706.5940 0.0300
3706.5950 0.0201
3706.5960 0.0412
3706.5970 0.0373
3706.5980 0.0275
3706.5990 0.0700
3706.6000 0.0391
3706.6010 0.0610
3706.6020 0.0679
3706.6030 0.0430
3706.6040 0.0380
3706.6050 0.0451
3706.6060 0.0299
3706.6070 0.0408
3706.6080 0.0351
3706.6090 0.0366
3706.6100 0.0802
3706.6110 0.0433
3706.6120 0.0420
3706.6130 0.0565
3706.6140 0.0324
3706.6150 0.0550
3706.6160 0.0372
3706.6170 0.0303
3706.6180 0.0337
3706.6190 0.0337
3706.6200 0.0446
3706.6210 0.0294
3706.6220 0.0291
3706.6230 0.0575
3706.6240 0.0290
3706.6250 0.0514
3706.6260 0.0297
3706.6270 0.0467
3706.6280 0.0527
3706.6290 0.0473
3706.6300 0.0364
3706.6310 0.0637
3706.6320 0.0437
3706.6330 0.0573
3706.6340 0.0365
3706.6350 0.0740
3706.6360 0.0388
3706.6370 0.0725
3706.6380 0.0504
3706.6390 0.0748
3706.6400 0.0528
3706.6410 0.0470
3706.6420 0.0445
3706.6430 0.0418
3706.6440 0.0445
3706.6450 0.0628
3706.6460 0.0658
3706.6470 0.0645
3706.6480 0.0663
3706.6490 0.0565
3706.6500 0.0662
3706.6510 0.0602
3706.6520 0.0746
3706.6530 0.0679
3706.6540 0.0650
3706.6550 0.0575
3706.6560 0.1482
3706.6570 0.0550
3706.6580 0.0944
3706.6590 0.0510
3706.6600 0.0904
3706.6610 0.0840
3706.6620 0.0986
3706.6630 0.0723
3706.6640 0.1039
3706.6650 0.0987
3706.6660 0.1065
3706.6670 0.1497
3706.6680 0.1176
3706.6690 0.1295
3706.6700 0.0789
3706.6710 0.0530
3706.6720 0.0869
3706.6730 0.0705
3706.6740 0.0447
3706.6750 0.0609
3706.6760 0.0604
3706.6770 0.0605
3706.6780 0.0823
3706.6790 0.0978
3706.6800 0.0867
3706.6810 0.0556
3706.6820 0.0472
3706.6830 0.0386
3706.6840 0.0399
3706.6850 0.0495
3706.6860 0.0395
3706.6870 0.0475
3706.6880 0.0320
3706.6890 0.0340
3706.6900 0.0661
3706.6910 0.0277
3706.6920 0.0345
3706.6930 0.0430
3706.6940 0.0376
3706.6950 0.0467
3706.6960 0.0597
3706.6970 0.0387
3706.6980 0.0526
3706.6990 0.0533
3706.7000 0.0341
3706.7010 0.0271
3706.7020 0.0428
3706.7030 0.0458
3706.7040 0.0616
3706.7050 0.0523
3706.7060 0.0404
3706.7070 0.0453
3706.7080 0.0314
3706.7090 0.0453
3706.7100 0.0258
3706.7110 0.0314
3706.7120 0.0275
3706.7130 0.0335
3706.7140 0.0290
3706.7150 0.0266
3706.7160 0.0296
3706.7170 0.0223
3706.7180 0.0267
3706.7190 0.0206
3706.7200 0.0294
3706.7210 0.0325
3706.7220 0.0284
3706.7230 0.0210
3706.7240 0.0291
3706.7250 0.0421
3706.7260 0.0260
3706.7270 0.0216
3706.7280 0.0373
3706.7290 0.0569
3706.7300 0.0372
3706.7310 0.0259
3706.7320 0.0331
3706.7330 0.0258
3706.7340 0.0288
3706.7350 0.0246
3706.7360 0.0280
3706.7370 0.0381
3706.7380 0.0206
3706.7390 0.0261
3706.7400 0.0289
3706.7410 0.0242
3706.7420 0.0322
3706.7430 0.0317
3706.7440 0.0448
3706.7450 0.0328
3706.7460 0.0274
3706.7470 0.0242
3706.7480 0.0305
3706.7490 0.0358
3706.7500 0.0535
3706.7510 0.0352
3706.7520 0.0294
3706.7530 0.0317
3706.7540 0.0265
3706.7550 0.0375
3706.7560 0.0289
3706.7570 0.0274
3706.7580 0.0277
3706.7590 0.0445
3706.7600 0.0366
3706.7610 0.0428
3706.7620 0.0351
3706.7630 0.0305
3706.7640 0.0530
3706.7650 0.0441
3706.7660 0.0646
3706.7670 0.0637
3706.7680 0.0560
3706.7690 0.0620
3706.7700 0.0803
3706.7710 0.0304
3706.7720 0.0500
3706.7730 0.0681
3706.7740 0.0847
3706.7750 0.0392
3706.7760 0.0656
3706.7770 0.0364
3706.7780 0.0520
3706.7790 0.0402
3706.7800 0.0434
3706.7810 0.0318
3706.7820 0.0335
3706.7830 0.0464
3706.7840 0.0451
3706.7850 0.0564
3706.7860 0.0504
3706.7870 0.0454
3706.7880 0.0605
3706.7890 0.0558
3706.7900 0.0474
3706.7910 0.0682
3706.7920 0.0571
3706.7930 0.1167
3706.7940 0.1428
3706.7950 0.1457
3706.7960 0.2077
3706.7970 0.0901
3706.7980 0.2528
3706.7990 0.1788
3706.8000 0.1454
3706.8010 0.1097
3706.8020 0.0822
3706.8030 0.0305
3706.8040 0.0597
3706.8050 0.0677
3706.8060 0.0514
3706.8070 0.0423
3706.8080 0.0415
3706.8090 0.0505
3706.8100 0.0501
3706.8110 0.0347
3706.8120 0.0326
3706.8130 0.0294
3706.8140 0.0864
3706.8150 0.0638
3706.8160 0.0311
3706.8170 0.0446
3706.8180 0.0348
3706.8190 0.0444
3706.8200 0.0399
3706.8210 0.0334
3706.8220 0.0331
3706.8230 0.0292
3706.8240 0.0418
3706.8250 0.0421
3706.8260 0.0346
3706.8270 0.0362
3706.8280 0.0276
3706.8290 0.0302
3706.8300 0.0275
3706.8310 0.0245
3706.8320 0.0323
3706.8330 0.0401
3706.8340 0.0408
3706.8350 0.0359
3706.8360 0.0480
3706.8370 0.0510
3706.8380 0.0396
3706.8390 0.0495
3706.8400 0.0311
3706.8410 0.0190
3706.8420 0.0317
3706.8430 0.0400
3706.8440 0.0402
3706.8450 0.0399
3706.8460 0.0285
3706.8470 0.0382
3706.8480 0.0323
3706.8490 0.0321
3706.8500 0.0350
3706.8510 0.0347
3706.8520 0.0205
3706.8530 0.0377
3706.8540 0.0330
3706.8550 0.0288
3706.8560 0.0359
3706.8570 0.0211
3706.8580 0.0340
3706.8590 0.0242
3706.8600 0.0372
3706.8610 0.0454
3706.8620 0.0255
3706.8630 0.0521
3706.8640 0.0295
3706.8650 0.0465
3706.8660 0.0330
3706.8670 0.0376
3706.8680 0.0230
3706.8690 0.0396
3706.8700 0.0383
3706.8710 0.0464
3706.8720 0.0699
3706.8730 0.0711
3706.8740 0.0502
3706.8750 0.0511
3706.8760 0.0351
3706.8770 0.0337
3706.8780 0.0222
3706.8790 0.0372
3706.8800 0.0365
3706.8810 0.0375
3706.8820 0.0412
3706.8830 0.0489
3706.8840 0.0543
3706.8850 0.0557
3706.8860 0.0625
3706.8870 0.0366
3706.8880 0.0288
3706.8890 0.0315
3706.8900 0.0261
3706.8910 0.0260
3706.8920 0.0371
3706.8930 0.0392
3706.8940 0.0312
3706.8950 0.0420
3706.8960 0.0456
3706.8970 0.0276
3706.8980 0.0443
3706.8990 0.0500
3706.9000 0.0287
3706.9010 0.0262
3706.9020 0.0354
3706.9030 0.0466
3706.9040 0.0291
3706.9050 0.0297
3706.9060 0.0214
3706.9070 0.0252
3706.9080 0.0273
3706.9090 0.0364
3706.9100 0.0197
3706.9110 0.0262
3706.9120 0.0278
3706.9130 0.0220
3706.9140 0.0367
3706.9150 0.0335
3706.9160 0.0551
3706.9170 0.0698
3706.9180 0.0446
3706.9190 0.0552
3706.9200 0.0551
3706.9210 0.0308
3706.9220 0.0375
3706.9230 0.0241
3706.9240 0.0295
3706.9250 0.0237
3706.9260 0.0211
3706.9270 0.0260
3706.9280 0.0265
3706.9290 0.0265
3706.9300 0.0271
3706.9310 0.0317
3706.9320 0.0289
3706.9330 0.0397
3706.9340 0.0387
3706.9350 0.0419
3706.9360 0.0241
3706.9370 0.0242
3706.9380 0.0287
3706.9390 0.0239
3706.9400 0.0381
3706.9410 0.0278
3706.9420 0.0360
3706.9430 0.0393
3706.9440 0.0332
3706.9450 0.0309
3706.9460 0.0273
3706.9470 0.0461
3706.9480 0.0724
3706.9490 0.1134
3706.9500 0.2234
3706.9510 0.1553
3706.9520 0.2814
3706.9530 0.2514
3706.9540 0.1816
3706.9550 0.0846
3706.9560 0.0668
3706.9570 0.0277
3706.9580 0.0286
3706.9590 0.0427
3706.9600 0.0352
3706.9610 0.0225
3706.9620 0.0206
3706.9630 0.0284
3706.9640 0.0265
3706.9650 0.0183
3706.9660 0.0249
3706.9670 0.0261
3706.9680 0.0298
3706.9690 0.0280
3706.9700 0.0175
3706.9710 0.0200
3706.9720 0.0283
3706.9730 0.0312
3706.9740 0.0266
3706.9750 0.0304
3706.9760 0.0184
3706.9770 0.0240
3706.9780 0.0312
3706.9790 0.0211
3706.9800 0.0276
3706.9810 0.0326
3706.9820 0.0305
3706.9830 0.0235
3706.9840 0.0308
3706.9850 0.0199
3706.9860 0.0330
3706.9870 0.0212
3706.9880 0.0263
3706.9890 0.0245
3706.9900 0.0282
3706.9910 0.0370
3706.9920 0.0538
3706.9930 0.0528
3706.9940 0.0408
3706.9950 0.0418
3706.9960 0.0367
3706.9970 0.0395
3706.9980 0.0268
3706.9990 0.0246
3707.0000 0.0365
3707.0010 0.0371
3707.0020 0.0400
3707.0030 0.0608
3707.0040 0.0427
3707.0050 0.0385
3707.0060 0.0435
3707.0070 0.0391
3707.0080 0.0418
3707.0090 0.0640
3707.0100 0.0220
3707.0110 0.0234
3707.0120 0.0217
3707.0130 0.0230
3707.0140 0.0231
3707.0150 0.0229
3707.0160 0.0220
3707.0170 0.0253
3707.0180 0.0295
3707.0190 0.0226
3707.0200 0.0327
3707.0210 0.0214
3707.0220 0.0315
3707.0230 0.0304
3707.0240 0.0249
3707.0250 0.0242
3707.0260 0.0244
3707.0270 0.0306
3707.0280 0.0283
3707.0290 0.0268
3707.0300 0.0202
3707.0310 0.0235
3707.0320 0.0208
3707.0330 0.0407
3707.0340 0.0503
3707.0350 0.0486
3707.0360 0.0623
3707.0370 0.0700
3707.0380 0.0910
3707.0390 0.0812
3707.0400 0.0577
3707.0410 0.0261
3707.0420 0.0300
3707.0430 0.0345
3707.0440 0.0231
3707.0450 0.0330
3707.0460 0.0332
3707.0470 0.0311
3707.0480 0.0524
3707.0490 0.0416
3707.0500 0.0447
3707.0510 0.1070
3707.0520 0.0450
3707.0530 0.0404
3707.0540 0.0361
3707.0550 0.0474
3707.0560 0.0804
3707.0570 0.0594
3707.0580 0.0308
3707.0590 0.0234
3707.0600 0.0229
3707.0610 0.0327
3707.0620 0.0256
3707.0630 0.0318
3707.0640 0.0218
3707.0650 0.0287
3707.0660 0.0336
3707.0670 0.0461
3707.0680 0.0205
3707.0690 0.0247
3707.0700 0.0417
3707.0710 0.0334
3707.0720 0.0300
3707.0730 0.0263
3707.0740 0.0339
3707.0750 0.0386
3707.0760 0.0283
3707.0770 0.0429
3707.0780 0.0297
3707.0790 0.0231
3707.0800 0.0274
3707.0810 0.0324
3707.0820 0.0339
3707.0830 0.0302
3707.0840 0.0596
3707.0850 0.0791
3707.0860 0.0218
3707.0870 0.0483
3707.0880 0.0311
3707.0890 0.0418
3707.0900 0.0243
3707.0910 0.0499
3707.0920 0.0385
3707.0930 0.0233
3707.0940 0.0382
3707.0950 0.0253
3707.0960 0.0336
3707.0970 0.0236
3707.0980 0.0312
3707.0990 0.0211
3707.1000 0.0527
3707.1010 0.0334
3707.1020 0.0273
3707.1030 0.0283
3707.1040 0.0238
3707.1050 0.0448
3707.1060 0.0636
3707.1070 0.0471
3707.1080 0.0290
3707.1090 0.0249
3707.1100 0.0348
3707.1110 0.0345
3707.1120 0.0274
3707.1130 0.0241
3707.1140 0.0288
3707.1150 0.0339
3707.1160 0.0283
3707.1170 0.0370
3707.1180 0.0348
3707.1190 0.0257
3707.1200 0.0362
3707.1210 0.0626
3707.1220 0.0521
3707.1230 0.0635
3707.1240 0.1005
3707.1250 0.0823
3707.1260 0.0836
3707.1270 0.0712
3707.1280 0.0814
3707.1290 0.0606
3707.1300 0.0618
3707.1310 0.0581
3707.1320 0.0433
3707.1330 0.0323
3707.1340 0.0389
3707.1350 0.0472
3707.1360 0.0507
3707.1370 0.0267
3707.1380 0.0264
3707.1390 0.0270
3707.1400 0.0289
3707.1410 0.0328
3707.1420 0.0220
3707.1430 0.0217
3707.1440 0.0289
3707.1450 0.0240
3707.1460 0.0231
3707.1470 0.0262
3707.1480 0.0247
3707.1490 0.0157
3707.1500 0.0285
3707.1510 0.0302
3707.1520 0.0285
3707.1530 0.0440
3707.1540 0.0295
3707.1550 0.0393
3707.1560 0.0291
3707.1570 0.0351
3707.1580 0.0600
3707.1590 0.0444
3707.1600 0.0372
3707.1610 0.0366
3707.1620 0.0394
3707.1630 0.0228
3707.1640 0.0204
3707.1650 0.0340
3707.1660 0.0291
3707.1670 0.0268
3707.1680 0.0229
3707.1690 0.0165
3707.1700 0.0201
3707.1710 0.0122
3707.1720 0.0191
3707.1730 0.0173
3707.1740 0.0162
3707.1750 0.0125
3707.1760 0.0177
3707.1770 0.0270
3707.1780 0.0539
3707.1790 0.0389
3707.1800 0.0255
3707.1810 0.0195
3707.1820 0.0155
3707.1830 0.0330
3707.1840 0.0241
3707.1850 0.0125
3707.1860 0.0187
3707.1870 0.0230
3707.1880 0.0188
3707.1890 0.0148
3707.1900 0.0102
3707.1910 0.0081
3707.1920 0.0092
3707.1930 0.0218
3707.1940 0.0147
3707.1950 0.0116
3707.1960 0.0180
3707.1970 0.0212
3707.1980 0.0119
3707.1990 0.0144
3707.2000 0.0184
3707.2010 0.0288
3707.2020 0.0462
3707.2030 0.0343
3707.2040 0.0251
3707.2050 0.0200
3707.2060 0.0174
3707.2070 0.0151
3707.2080 0.0145
3707.2090 0.0089
3707.2100 0.0168
3707.2110 0.0147
3707.2120 0.0128
3707.2130 0.0176
3707.2140 0.0145
3707.2150 0.0098
3707.2160 0.0118
3707.2170 0.0086
3707.2180 0.0152
3707.2190 0.0168
3707.2200 0.0238
3707.2210 0.0062
3707.2220 0.0098
3707.2230 0.0134
3707.2240 0.0133
3707.2250 0.0110
3707.2260 0.0210
3707.2270 0.0217
3707.2280 0.0101
3707.2290 0.0145
3707.2300 0.0123
3707.2310 0.0108
3707.2320 0.0225
3707.2330 0.0169
3707.2340 0.0133
3707.2350 0.0164
3707.2360 0.0134
3707.2370 0.0083
3707.2380 0.0191
3707.2390 0.0145
3707.2400 0.0074
3707.2410 0.0212
3707.2420 0.0179
3707.2430 0.0090
3707.2440 0.0144
3707.2450 0.0182
3707.2460 0.0212
3707.2470 0.0286
3707.2480 0.0348
3707.2490 0.0278
3707.2500 0.0208
3707.2510 0.0122
3707.2520 0.0129
3707.2530 0.0152
3707.2540 0.0149
3707.2550 0.0160
3707.2560 0.0189
3707.2570 0.0177
3707.2580 0.0218
3707.2590 0.0188
3707.2600 0.0212
3707.2610 0.0199
3707.2620 0.0113
3707.2630 0.0218
3707.2640 0.0057
3707.2650 0.0248
3707.2660 0.0151
3707.2670 0.0189
3707.2680 0.0136
3707.2690 0.0211
3707.2700 0.0248
3707.2710 0.0156
3707.2720 0.0193
3707.2730 0.0253
3707.2740 0.0370
3707.2750 0.0359
3707.2760 0.0339
3707.2770 0.0279
3707.2780 0.0313
3707.2790 0.0084
3707.2800 0.0132
3707.2810 0.0098
3707.2820 0.0165
3707.2830 0.0263
3707.2840 0.0140
3707.2850 0.0412
3707.2860 0.0219
3707.2870 0.0235
3707.2880 0.0177
3707.2890 0.0343
3707.2900 0.0281
3707.2910 0.0326
3707.2920 0.0299
3707.2930 0.0261
3707.2940 0.0181
3707.2950 0.0120
3707.2960 0.0393
3707.2970 0.0416
3707.2980 0.0271
3707.2990 0.0436
3707.3000 0.0280
3707.3010 0.0255
3707.3020 0.0216
3707.3030 0.0275
3707.3040 0.0229
3707.3050 0.0333
3707.3060 0.0268
3707.3070 0.0403
3707.3080 0.0509
3707.3090 0.0484
3707.3100 0.0538
3707.3110 0.0193
3707.3120 0.0331
3707.3130 0.0512
3707.3140 0.0258
3707.3150 0.0437
3707.3160 0.0272
3707.3170 0.0586
3707.3180 0.0509
3707.3190 0.0746
3707.3200 0.0467
3707.3210 0.0743
3707.3220 0.0293
3707.3230 0.0249
3707.3240 0.0389
3707.3250 0.0563
3707.3260 0.0276
3707.3270 0.0203
3707.3280 0.0244
3707.3290 0.0230
3707.3300 0.0302
3707.3310 0.0406
3707.3320 0.0284
3707.3330 0.0276
3707.3340 0.0192
3707.3350 0.0196
3707.3360 0.0191
3707.3370 0.0253
3707.3380 0.0281
3707.3390 0.0211
3707.3400 0.0308
3707.3410 0.0181
3707.3420 0.0330
3707.3430 0.0252
3707.3440 0.0242
3707.3450 0.0262
3707.3460 0.0185
3707.3470 0.0315
3707.3480 0.0792
3707.3490 0.0945
3707.3500 0.0557
3707.3510 0.0337
3707.3520 0.0174
3707.3530 0.0120
3707.3540 0.0135
3707.3550 0.0173
3707.3560 0.0140
3707.3570 0.0138
3707.3580 0.0120
3707.3590 0.0120
3707.3600 0.0120
3707.3610 0.0120
3707.3620 0.0120
3707.3630 0.0120
3707.3640 0.0120
3707.3650 0.0120
3707.3660 0.0120
3707.3670 0.0120
3707.3680 0.0120
3707.3690 0.0120
3707.3700 0.0120
3707.3710 0.0120
3707.3720 0.0120
3707.3730 0.0120
3707.3740 0.0120
3707.3750 0.0120
3707.3760 0.0120
3707.3770 0.0120
3707.3780 0.0120
3707.3790 0.0120
3707.3800 0.0120
3707.3810 0.0120
3707.3820 0.0120
3707.3830 0.0120
3707.3840 0.0120
3707.3850 0.0120
3707.3860 0.0120
3707.3870 0.0120
3707.3880 0.0120
3707.3890 0.0120
3707.3900 0.0120
3707.3910 0.0120
3707.3920 0.0120
3707.3930 0.0120
3707.3940 0.0120
3707.3950 0.0120
3707.3960 0.0120
3707.3970 0.0120
3707.3980 0.0120
3707.3990 0.0120
3707.4000 0.0120
3707.4010 0.0120
3707.4020 0.0120
3707.4030 0.0120
3707.4040 0.0120
3707.4050 0.0120
3707.4060 0.0120
3707.4070 0.0120
3707.4080 0.0120
3707.4090 0.0120
3707.4100 0.0120
3707.4110 0.0120
3707.4120 0.0120
3707.4130 0.0120
3707.4140 0.0120
3707.4150 0.0120
3707.4160 0.0120
3707.4170 0.0120
3707.4180 0.0120
3707.4190 0.0120
3707.4200 0.0120
3707.4210 0.0120
3707.4220 0.0120
3707.4230 0.0120
3707.4240 0.0120
3707.4250 0.0120
3707.4260 0.0120
3707.4270 0.0120
3707.4280 0.0120
3707.4290 0.0120
3707.4300 0.0120
3707.4310 0.0120
3707.4320 0.0120
3707.4330 0.0120
3707.4340 0.0120
3707.4350 0.0120
3707.4360 0.0120
3707.4370 0.0120
3707.4380 0.0120
3707.4390 0.0120
3707.4400 0.0120
3707.4410 0.0120
3707.4420 0.0120
3707.4430 0.0120
3707.4440 0.0120
3707.4450 0.0120
3707.4460 0.0120
3707.4470 0.0120
3707.4480 0.0120
3707.4490 0.0120
3707.4500 0.0120
3707.4510 0.0120
3707.4520 0.0120
3707.4530 0.0120
3707.4540 0.0120
3707.4550 0.0120
3707.4560 0.0120
3707.4570 0.0120
3707.4580 0.0120
3707.4590 0.0120
3707.4600 0.0120
3707.4610 0.0120
3707.4620 0.0120
3707.4630 0.0120
3707.4640 0.0120
3707.4650 0.0120
3707.4660 0.0120
3707.4670 0.0120
3707.4680 0.0120
3707.4690 0.0120
3707.4700 0.0120
3707.4710 0.0120
3707.4720 0.0120
3707.4730 0.0120
3707.4740 0.0120
3707.4750 0.0120
3707.4760 0.0120
3707.4770 0.0120
3707.4780 0.0120
3707.4790 0.0120
3707.4800 0.0120
3707.4810 0.0120
3707.4820 0.0120
3707.4830 0.0120
3707.4840 0.0120
3707.4850 0.0120
3707.4860 0.0120
3707.4870 0.0120
3707.4880 0.0120
3707.4890 0.0120
3707.4900 0.0120
3707.4910 0.0120
3707.4920 0.0120
3707.4930 0.0120
3707.4940 0.0120
3707.4950 0.0120
3707.4960 0.0120
3707.4970 0.0120
3707.4980 0.0120
3707.4990 0.0120
]]>
</ExperimentalPlot>
</Overlays>
